Time_sec,Fp1,Fp2,F3,F4,C3,C4,P3,P4,O1,O2,Fz,Cz,Pz
0.0,-34.44861014220473,42.95151757991114,20.42237529238647,-28.281363048545472,-24.508312351362235,-25.282766462733058,-23.497761692022898,-19.543423842299873,12.205525769011341,-52.19116260668041,-30.436442356767273,-9.826658660364991,1.2388952284797394
0.00390625,-36.016512718410475,57.164767575222285,41.01978915569504,-29.98267071864541,0.9148987095887018,-9.862132805908605,-6.836089177816711,-27.56510036013879,-3.8207590347883515,-23.06230445806202,-26.332871207169152,30.5678698799859,-6.182062657633605
0.0078125,-48.02164460647386,41.06437278759714,58.68744547628468,-41.27233153979721,14.242801341694047,-1.1047355446544276,13.911756442585654,-25.35612726520427,-17.542424878847683,-4.830125010417384,-13.099423675794979,44.33507228402844,-14.345102664107827
0.01171875,-56.84459894644158,25.850490275819695,50.95488231751937,-46.00239262024347,10.59817651947183,20.441505381849293,14.398700019222574,-31.887873621705765,-31.288308869429528,-3.3481663650488103,-9.851862545749544,59.16087490379505,-27.20166758852132
0.015625,-56.026380198106395,1.1680790168317012,48.47473703557686,-47.1652758504443,9.846936498227404,20.240221880248782,12.383292690508409,-15.15710514011413,-35.31669660944183,-21.592429255884625,3.559069114138861,55.09473832248503,-15.900712643441729
0.01953125,-34.239438432771664,-17.272548719119957,30.21090048635167,-40.76443345787857,-2.291848147858799,25.389398404476346,2.5708717080109333,6.381709935946935,-10.889992447760932,-32.00252935436906,17.20023471508243,58.336916677947514,1.4943414517338751
0.0234375,-17.12462707442264,-15.340253901497942,14.862754482134076,-57.26255027139227,-23.461314660095,0.927731430501435,-15.760370281101112,12.429229450972247,12.997535158634486,-53.719005623136404,14.614270345613978,51.383884605804894,24.955570762289277
0.02734375,11.459376844765874,2.0999123100133845,7.599343082797932,-52.638714889896434,-42.097795092647544,-24.810454793000343,-28.498634009248292,-11.233776273434763,15.312223470709307,-56.05376865282292,-7.414335780748601,44.58118632821873,27.483443569953053
0.03125,37.444403775564254,7.1516469330150265,2.3065737054055093,-47.14473506245221,-43.776099112125806,-49.11663350156991,-49.08388759013994,-39.060924769278664,1.5599472399323966,-49.78791129379209,-16.95599432916117,26.40223787657073,15.16116803526026
0.03515625,37.97403440432628,9.5126414736914,3.0960146556652384,-33.52697761776692,-37.80483849947786,-60.61135583731574,-45.961503493511046,-46.681331414603875,-17.743302474279492,-40.93532934283133,-31.413203651602636,26.51506492318802,11.421034660238343
0.0390625,25.149068148460508,25.393739586198546,28.97221158815013,-2.2253380744199753,-27.035075942605708,-42.96674884102168,-37.71061348660791,-52.47590026178672,-33.238151565370856,-36.778876389078874,-29.444019056466857,30.558262914639318,23.60376056005577
0.04296875,16.80359457674962,18.934279675233675,39.04455439162939,16.121745782778778,-22.638781253306675,-20.196717160904456,-21.0209668523022,-50.90850016907002,-51.732645583365134,-18.85876641203875,-24.5672597014553,27.295449684639962,28.946970535773637
0.046875,-3.326301204072539,13.280819640712565,41.66920433717049,23.736615814022564,-29.094643105460342,-20.542938012645692,-28.69514656932275,-41.3399729084548,-58.60618652563738,-21.76892733916079,-27.944122973588765,27.757110173682968,30.08872660873706
0.05078125,-21.110611076367725,4.959579586646632,36.007038354718745,0.3613708004313648,-22.315612148741995,-1.7223151004291655,-29.710667329619525,-29.385367489693678,-48.20334621910372,-24.72877605310906,-21.66371144990178,25.218863944386406,13.357580065072153
0.0546875,-11.365664084105028,12.779394459238876,25.986741378334436,-25.327112137190767,-20.59299430930661,-5.5626476209682485,-33.653931104819264,-34.313008184576816,-38.504436205500376,-21.32862504884862,-28.62308403767853,39.84051610968979,-6.071661994318349
0.05859375,-4.728292035894041,17.341661441187206,24.898002102199783,-30.937157280023566,-2.8312568732205268,-10.498658473315805,-33.50415282604497,-38.35785826123625,-33.248211470693285,-21.135514779783385,-20.689534645958716,58.24730224923017,-10.699229600209561
0.0625,-5.3449781224459,24.027785672504972,33.59769660412201,-21.38811125125015,9.430009866192146,-2.598318884414153,-11.834082774959235,-36.3464340176292,-17.983131042647077,3.176297310325395,-10.937338698956761,85.34450687933426,-11.53446651357003
0.06640625,-10.270071199549156,8.920711592515078,30.421652329208356,-18.182570797586838,15.635853507063999,2.0812062115373022,-8.363043059001352,-34.4096250619934,-16.326847894794607,0.6963226292429114,10.748747856759632,92.2344592326374,0.2766912940656674
0.0703125,-22.685214407413497,-15.607880466221847,18.42824643463807,-36.11680348362421,-13.429449023627743,-6.635405751933543,-33.02794108003893,-16.78105156259587,-16.54527602834467,-19.97378588025609,21.819059070851207,93.79390781112926,1.3501391765238155
0.07421875,-21.765947955116186,-26.911463179221048,5.742943357581578,-34.86373976181986,-36.83760758395215,-30.018149763734773,-52.452298874492335,-12.371708785415553,-6.69617981971549,-33.10920868265122,4.4851071825967495,66.6852815175569,27.323831907944577
0.078125,-8.661068434728778,-17.851203130538483,-14.387158711306764,-30.77016753094813,-64.76818888783879,-33.883125810199964,-64.09548734070509,-13.334074053502343,7.970264313312262,-35.01512383556318,-6.428991929342408,45.000398562968314,45.68142441067283
0.08203125,9.235675889466654,-7.58487604931558,-20.361662675430495,-27.660774173471772,-69.37319501438044,-48.88820503034714,-73.28903128730653,-16.846311124657426,27.306420898887403,-50.78041112700568,-23.498566094598708,29.798915774931025,60.0645826629631
0.0859375,17.178089588129456,35.99807085673796,-21.81208698705333,-20.947570528254484,-69.99910124324427,-46.02062649404441,-82.85908211260812,-47.32842377860045,12.761218747877642,-49.404932070434626,-34.47121853679203,26.083393046442428,46.88635114575859
0.08984375,8.227229783627266,50.81188423592916,7.883659618899356,-20.786337159208234,-60.70060447089605,-52.98212582957706,-85.21724792380249,-74.59793139098319,-4.403380369085125,-37.33613000205785,-44.59908338926881,26.503467317085875,28.631292190312546
0.09375,-16.854930336181464,51.33064805154443,34.9900955289158,-8.645163400418163,-27.729728897799074,-45.19621748611047,-57.4632042386981,-92.24555857777985,-32.820378322323776,-2.111370782860946,-34.510799976936624,49.329387270934845,16.130519823231
0.09765625,-40.62166691992037,49.700208976850526,49.78352706596412,-11.00720534038821,-17.3083487002712,-32.00940112558995,-24.32004566751885,-92.95943987133697,-57.58481921023996,9.837629688743387,-11.750779605172506,73.25501480419679,21.324852874108196
0.1015625,-58.520677331170646,47.85650096007636,61.13750921627471,-2.009050954602686,-1.1911074222653242,-17.274389007458854,7.19663531048237,-61.252138428510605,-52.47510176615151,27.969253062222194,14.15170908169145,75.94358803368941,39.55638364563751
0.10546875,-44.989221910722776,40.0670385169106,45.311779178730475,-3.9086645926360815,3.026648001884657,-5.5027446724578555,10.191909807989337,-31.045064885213524,-41.53040093712231,22.77861232489263,33.30632884913152,85.25817400659432,50.668107323904664
0.109375,-32.183355747435584,25.480326889705232,27.207617991234876,-34.795876573497175,-9.342391090217756,-15.644660760640436,5.6860103540518185,-27.89868908437731,-18.118956941705836,-3.9983703785664915,26.901319838030663,78.00546209750834,51.25934221223097
0.11328125,-17.433334640066988,22.5103114772553,6.997408180042662,-62.42148448289421,-5.945221450108269,-37.44941035971359,-32.109155949573186,-38.62432492027267,-14.385194874110642,-11.032363146382371,15.547154080301599,80.56914520685788,39.533315905304946
0.1171875,9.03580969663307,18.97260463124582,6.30447278288874,-63.70043319464387,8.770142497446209,-36.99379766085758,-46.58056526460485,-54.44546681626093,-11.609467602680494,-10.331444392065844,20.612648697967582,93.58642342468912,27.631264763972773
0.12109375,13.343163199204202,5.626737945331088,1.0099745041978068,-56.04527645528812,20.25791813837732,-37.45124959829212,-50.23948780137712,-62.560158367011994,-6.868006310138894,-11.928899562001366,31.01189091888382,92.86779191024971,18.081821542844143
0.125,20.92754628339284,7.17134494420706,12.94088833791539,-36.14804391075253,8.882960996621712,-33.31453276095337,-50.39586990067498,-64.16141179426215,-24.192380875812955,-16.19102311268913,39.10690370805795,73.03763556515227,24.341051209614605
0.12890625,11.229124214678288,2.5110463510440684,3.2093455940577575,-9.276075846920799,-12.98245133506139,-50.898101832016636,-49.491632406531885,-65.40716061890122,-23.03100899299965,-31.0687582620005,39.82270104066748,53.291631580020706,32.895371708176015
0.1328125,-8.24551622924724,7.830911067312085,-15.182729422840433,4.038988941968263,-47.68337160052386,-39.468568557295065,-55.43416912918022,-74.97396161906063,-18.566011787637766,-43.120074064575185,15.406970799864776,22.067400206782484,21.0376605877289
0.13671875,-9.58582928783369,31.420940114527784,-21.46318197083329,21.098006063381778,-59.77649502696351,-14.740331004997547,-66.33456538450966,-75.2902073094418,-11.446046026896168,-36.687196930227216,7.4144666369928425,8.235104652636288,10.250731819219078
0.140625,2.1546312613299863,51.824278034449094,-8.339663344970493,23.24230817357156,-51.86717680491761,-12.510816136025367,-67.61878919762351,-71.71482279548714,-9.026186979510342,-30.299903049160555,1.3700114303018118,17.55053165865732,4.452902256068567
0.14453125,9.022313853162007,68.8363809672773,14.51987573801258,17.385736956595494,-27.639787467370166,-12.279266449095497,-53.41598311255261,-60.92821081461434,-7.84207713675414,-10.755562794470531,12.665818874620776,38.70736865475021,-17.033043441238757
0.1484375,11.181802855091618,70.54398797214083,33.302239891678724,12.159401527698142,3.605009856313547,-4.912624010438998,-38.683532794390345,-55.56287493001726,-18.630349122451666,6.025836007929723,17.844582069797504,61.29768739241009,-31.877563064980478
0.15234375,1.5391677372478885,43.55079680025096,50.38463166057834,6.725749833425015,8.56838612461479,-7.635340895673393,-13.605255270022425,-59.59093055433753,-22.82257548750623,10.738484346592884,11.027405187589544,73.39734741972704,-42.15156826256781
0.15625,21.254880457161267,22.318495705024755,59.313203680226856,3.297258785282497,14.049747661623984,3.5689335297236187,-1.3133166291964486,-55.242205230805624,-4.95261826971107,-7.8683597091215285,34.423962649334264,81.60897244517221,-32.1787071165734
0.16015625,21.392174811638355,10.14966930869103,59.210467830364394,1.1309190039506294,7.8767632201589475,19.736225105812217,14.531466590892485,-27.149971241367478,13.599822816037157,-15.014874179766679,46.35150128181643,89.48503281970532,-7.981837529871715
0.1640625,33.53314343891732,-1.476976906370604,39.58131017782995,-12.239711247853347,-4.888954283311103,6.853560766756996,-6.214700623040059,-13.061163597069196,37.46776873697693,-39.722954683695015,46.19624721053148,84.50549209377624,15.102729776050856
0.16796875,49.03758703597768,19.308168098598443,16.45886244748293,-19.180474946337217,-10.391097004480528,-18.632381822764195,-22.987468665916442,-16.031790840420904,51.25799633854466,-59.213529565091285,28.634484002990046,79.81846703946107,23.626033755563213
0.171875,45.523172427586786,14.59402469650961,0.36025007634757855,-34.556640200075485,-23.11638502265451,-45.494879396492145,-38.18397053698614,-38.055413887865335,43.290033975925446,-67.1984604482394,14.618770006494746,62.036237572273016,12.385603794657314
0.17578125,51.34113479704217,13.17712932303714,-3.1596718216881685,-29.633911012925832,-19.465235669051495,-59.8558346299602,-39.44957271124936,-52.65846940798517,32.60244746876114,-57.9319191608443,13.848492778153235,60.08970891728061,4.032215637109723
0.1796875,47.47890108147924,31.184948052061543,12.220937006786723,-6.1005664383310885,-7.241319784159127,-62.87839281139671,-37.85304693605462,-74.37769664742228,3.1107446375655097,-36.44731827272815,12.195672413110488,65.03788053641276,11.125693027927511
0.18359375,28.86317128000035,43.35241266826034,22.946753014122237,-0.9385281694597775,3.3839449675518956,-44.80317198664846,-13.66058937369626,-61.43435342148466,-0.9776612167585658,-12.432758972912822,9.664142382947666,82.3035001678865,15.410176923507432
0.1875,4.940399693860946,37.38772140564039,39.76511211487704,14.881765016959323,-2.714238995048401,-28.823699092273426,-0.5311360783836044,-62.5536429928198,-1.6788610098001016,-10.020514030915688,-4.472435701268452,59.71184105737286,19.977950007395933
0.19140625,-18.650235452746983,43.30778416144223,29.789575841319884,-11.918971887810265,6.90039162161945,-6.880752137302551,9.24480885240018,-51.131610184000806,-14.827187557896568,-20.589353598337844,4.300608939226159,56.979560726495386,21.788286657683567
0.1953125,-22.689666537433865,58.614922813769255,19.69869172917038,-24.624719064851543,7.965464465229162,5.531697364277114,7.340832873241734,-48.287697946569175,-21.879897784470575,-10.281424231012162,17.33260184939086,64.0783269312307,13.744870420828246
0.19921875,-4.236037408074145,64.23143613931958,29.35422913904047,-50.484230564644,24.78188279694287,16.12089443055895,6.286683593179565,-49.7136435655453,-7.426969999395205,-5.737110002872175,9.511663175238203,83.4725169675798,8.537184280004052
0.203125,8.231708065789594,82.61557695004183,38.65408812578824,-60.27276112818044,45.26986192568351,21.932440913619082,28.904692475429034,-44.85224985056304,-14.120415756130784,3.392877970318679,19.910487553985096,94.11401054247527,3.924646485917524
0.20703125,10.229074362537025,50.83411607934817,38.21667151745868,-58.044783057301,40.67339664766842,19.208559960070442,27.839555894281027,-51.252682974669554,-21.180287102533228,-1.425468487231647,31.586273332762982,104.77391622008204,2.782703531689401
0.2109375,12.370986562886356,29.68423256770182,35.25515674396951,-39.983420885903286,27.899932660866384,9.338938873805487,28.47772133026547,-49.88668996353962,-30.120598408849013,-16.65170910747729,25.01895885740964,111.67465102985075,14.888755981003445
0.21484375,21.339071141373367,18.485155901702917,16.595366399100648,-35.25955832356448,13.029854477662274,15.497998449423495,26.139566245115272,-46.07452275546029,-22.698532165119346,-23.310899903823355,28.357055315990408,81.28879066779278,36.1514612711008
0.21875,34.09768601021591,21.392661547700534,9.173751611291829,-40.54413507865487,-11.700862320557432,16.864945835264674,13.885552470103672,-43.47787192981501,-5.661546430034708,-48.11828506890264,28.18361384193208,63.97505108015945,61.804613805529186
0.22265625,49.32009902391391,30.52872939779182,-14.512802303972283,-26.746814373541753,-24.161733057588656,1.903931015084714,7.864662622490808,-38.562102350080586,10.924150002264337,-65.88648814755912,13.505006937967652,40.85743767893503,65.68608387534267
0.2265625,63.58828437686684,45.26784092305235,-27.615918996811807,-24.815943518456308,-41.89208304364744,-14.74461563023773,-0.07042386078201457,-41.5925343285717,11.520409007856685,-69.03837319761885,-6.536444048058952,42.86676791288759,56.684327684208625
0.23046875,56.11861924347587,60.34168972910077,-24.10394230019651,-20.44538839545501,-42.91534181122698,-31.649169078531017,-22.402329284598153,-65.54834339387467,0.759106547146276,-56.663006035877174,-19.89537642142263,43.61226626869117,28.514567199270434
0.234375,35.64242125102618,68.4822918150953,-0.9170103724661582,-8.442837237080958,-45.37724909761575,-43.30126503697643,-11.154138187984689,-87.80641454496026,-22.21651753197664,-45.030655610494,-23.25601629763261,49.5936630116259,10.338480190415364
0.23828125,20.842816647992315,72.06847431545843,16.317600253768497,-11.557903081639708,-20.10013845461904,-20.36599561038817,22.35756854757644,-83.21589791787616,-26.455477936896358,-37.845901664516894,-9.711572084829967,52.64774067977787,6.267879644932121
0.2421875,6.346648629686216,74.36151650683757,37.93793305918454,-2.7352399449571436,-0.07912310848182169,-2.490682068336307,40.68971265336593,-61.58046695631603,-22.740478809084713,-34.274409827882984,13.093905263239492,57.70105896558182,12.18619659072079
0.24609375,-0.3711279601635459,57.61103341581878,33.552890507782955,-10.434545222603218,6.5870858631769575,4.286367780648731,39.416714808341894,-40.05637773956291,-23.273692813291017,-40.81371986263549,34.175911877586394,54.07778261875212,14.880963198648779
0.25,12.042109897493615,44.517903089620965,31.983026438310283,-21.078553478215657,-0.04659818359696617,0.19904559014223525,28.522879520375845,-9.478999770477653,-13.883368342149176,-64.2314878426733,41.86696764101947,40.40967491574004,22.625834489726593
0.25390625,22.92634967270418,30.54736707021994,15.590123809488459,-39.393127635592194,-11.918702006553206,-18.586501698979603,10.42080283485624,-1.1754644975969897,0.012377776411608421,-61.232695910473005,42.729452603824605,36.76850530742881,14.631982129432163
0.2578125,21.900183500642942,24.96434457961702,16.11897327469905,-63.332680229222035,2.711638692122041,-43.39717259279845,-5.968436122993104,12.508887585697451,5.6297118664160255,-52.922449932826375,39.42633908886623,26.863259561216644,15.641081905798057
0.26171875,38.62982422729302,31.368683136365192,25.210403715979133,-46.492984168812974,22.16386847157299,-44.058264506020244,-4.011679439957245,4.047753376377741,21.710494537785703,-39.927041701112586,42.75719651992232,40.54234961250707,23.15947136095982
0.265625,35.943821256363094,25.570243125274565,13.577678190264429,-23.809028716405443,25.186870155640474,-60.049115371698186,-8.126155804829278,0.42464892341663896,25.11431134453685,-33.38408865253172,51.47538295297204,34.0073422382035,31.4390071943241
0.26953125,20.02017736973677,34.67417788083694,8.74940061419442,-19.34619218432975,11.058966641051072,-69.65418381425027,-5.1345972871512515,-10.983940071736633,12.652286906849424,-35.76249868005164,36.375185042367505,13.329601284860411,40.6306396169866
0.2734375,7.529328402123051,31.916108949403238,-5.100248729986485,-7.953635414971613,-16.714716396552475,-63.332559733877844,-2.744883987263255,-14.071033905383876,7.611202049132983,-34.63117265133639,28.459440404821553,-19.21613612148922,43.371320960491666
0.27734375,-1.387140305707908,45.13933386004523,-7.927195637037633,5.620461708058672,-25.62300609202031,-60.25370527357598,-3.4017050618310094,-28.994353762820253,1.6770050750972987,-32.67896952680594,19.698807251417215,-29.351576988846677,48.875193565272845
0.28125,0.7930159517745303,65.25745518591462,-11.152791051747215,-3.8712485345990757,-28.12856827086626,-58.48655380271788,-5.176349225001208,-8.572681188970245,11.311468367681101,-27.543987149750357,3.138310746184457,-13.473218078719796,36.54680740963517
0.28515625,-15.100770832235796,78.19275903523982,-7.179014352903823,1.477440754240933,-18.65771252361343,-59.965208318004954,-7.971704701289712,-9.289074277662579,3.537702401038449,6.463568004709278,2.005881358568282,-2.6090410945496223,11.154922184268754
0.2890625,-29.673008808665415,79.86219216186745,14.612762884006045,-19.89430314938631,4.212529376038456,-52.20131400342885,-12.952957204188241,-9.826110649951673,-26.94260020617851,25.32894594611351,-1.2346138389855612,22.88315969243986,-15.60639176918862
0.29296875,-30.52217017732245,73.72436294834156,36.943498662864805,-31.02482462420879,15.429954909850657,-40.49698778841089,-11.893698677401424,-23.538960434142947,-51.62542698511977,48.44985145221134,6.318983969294553,40.780649352123376,-46.24439367471428
0.296875,-35.74272109899469,52.647275142805256,38.684405953761434,-39.83328613599274,43.13651406472343,-23.335986121907336,-8.16015549387021,-13.510223253189377,-46.476941621481814,64.63409487690524,13.232698741352205,50.60379941501762,-36.858936857566334
0.30078125,-43.58985520481905,27.864122213541236,53.53829262236444,-29.643987681363456,38.353484658836486,-13.059609396921319,16.31137135912177,5.922567243874094,-35.0888443288937,44.77500554750673,34.17050915448006,66.5600028122885,-18.65991627445119
0.3046875,-35.20493406584648,8.562695507794778,19.6474602198532,-37.13059780277054,13.467932126779004,-16.045619710400047,10.848558912968,18.544052030241183,-12.183363809781103,22.840566358456403,44.16612254859864,45.17612772368991,6.908233327521678
0.30859375,-22.78902207374233,-2.1225857992753348,-2.4967554049415366,-55.91356789566827,-12.733704146592508,-31.14049787673387,8.530418908090253,34.08911287837342,5.789802573159894,-1.720225527451834,41.78212775403516,30.088573357507535,18.797829691009245
0.3125,-6.053786302267583,-1.8507098697512254,-34.77880145132234,-60.30167847710566,-30.39535954919,-48.16004030809072,-14.273921181255844,24.310102204777362,4.1832854373208415,-13.812154255080095,26.790198349502727,11.634457104859397,26.070887059590433
0.31640625,2.6848463902176545,14.318521923382406,-37.70573758788899,-46.77723769977349,-37.51518641769458,-51.59787762858646,-40.47795215332598,4.629813135019292,-4.956696550932158,-5.675452179028941,7.231252900486462,9.121927715852689,30.926877766585726
0.3203125,-1.6343212121013955,10.78224607466325,-32.37764326629639,-18.20338488775912,-30.60275469621759,-41.430316617000855,-38.93710023296153,-7.661842528427573,-3.1911904763468617,8.409441436267677,6.4680556736184425,3.2226424012001402,30.358229733667045
0.32421875,-12.60028790812166,11.876738493254761,-26.16463404138578,5.5948897795282315,-26.118874351763726,-20.33514379624072,-20.795736058420175,-24.494585393785275,-10.101205513015508,34.21106303065119,17.773181766219764,8.483271158828066,26.604867782723716
0.328125,-27.17482903926852,10.112315966009868,-23.24600169136588,23.290438576819028,-29.35859576568836,3.4031930118580735,-5.788426289283618,-24.77425593620085,-36.28470252797048,44.341812050285256,20.128502048156843,-11.706932468880783,18.4627432696737
0.33203125,-45.41774390902464,-6.8381679495303445,-28.795980046662564,16.923559779234232,-45.07743387144552,4.3504215874150205,-1.8349088637261861,-18.989406512771104,-35.7374162484778,43.940847058416864,15.518976510502045,-17.830973331102832,22.9725504625262
0.3359375,-53.147785390448504,-6.947690116212868,-27.884840020987347,19.15127830715609,-45.4450158762228,7.082288044610133,7.983155660767944,-6.127886598418466,-36.00263689698466,38.69641036514044,11.723591466024208,-23.744328929890845,5.049270810581982
0.33984375,-45.431088838544504,-0.42695586945426994,-13.481502026127266,14.832257722102861,-28.756975553269356,15.067474662675313,1.645768218113127,14.34145023334996,-22.967395064931647,43.69526539158863,16.557396482717884,-7.692165713195943,-2.737084572704098
0.34375,-29.586643694973105,-0.6628442843842941,12.516686698253277,10.783978437791735,-14.360389072785802,11.534372177780455,4.855628271610591,18.959970878722537,-12.908456764935575,51.77683961047195,19.687784271540217,7.567093652087323,-18.506582125099154
0.34765625,-23.244302682381903,-6.728881505241587,18.088741772301113,8.069256065750626,-5.940473420461694,8.178656928512948,9.470747726854082,17.20442893145978,-6.857389661661879,60.33014600130345,25.168310359109256,17.71647770668236,-29.098201356499914
0.3515625,-22.24072006624639,-28.32952452312417,19.690487114190184,9.052060478284092,-1.5473775181969842,7.326078912053139,4.7896151594254945,13.026450447497389,-4.514330006488816,44.21666985399794,22.26993115395019,33.53189884928839,-29.80121916590931
0.35546875,-30.745205894583542,-51.36592844868147,20.8731004672177,4.131991496551658,3.615449058609164,8.348834955443728,5.436887347642918,12.519478986457951,-3.3998586297849704,35.14219338510522,38.800336616957175,37.67779361215209,-16.269047475726094
0.359375,-28.86671009932032,-52.0958089809651,5.665953068035381,18.847970312546536,-10.55970414405625,-0.15727316831723792,2.3902441974880584,31.532092632080968,19.15971612100233,8.837982216797275,41.24818480312815,14.288133537100125,8.400641695120958
0.36328125,-10.55978454073314,-31.267888736169567,-15.24664795525257,25.178854317521512,-37.48511736702235,-4.187770464456196,-6.206581724507496,37.38047562470577,45.523126814918406,-9.690578061097476,24.43289902615625,-1.3708810144818244,22.190159286672436
0.3671875,-7.045724433901963,0.192066609751691,-15.083310887688327,34.66215752027214,-50.52124544277072,-23.55711350943825,-19.29629610697893,36.883227650311625,54.29966067054867,-12.014560974669923,10.435442241161152,-8.638681869259024,30.937954822226313
0.37109375,0.7718213413177982,4.784952160518451,-22.761403872045584,37.26841066387891,-52.469308433053605,-42.19332007895085,-34.549982471676515,16.089846991133452,35.1914892758255,-15.56287390309361,-12.529347697897563,-15.711259125486176,6.748684698078627
0.375,-0.06670493525645527,22.731564885143342,-12.556035217959355,43.477265257941234,-37.303117452150964,-54.936132231234005,-20.43321303985913,-11.63041139032249,19.302191456515988,0.9922296811257625,-40.144940889863335,-10.307149965907207,-21.189736129681886
0.37890625,-4.473145492143045,29.576931496688317,-3.118847094833836,42.97396919301693,-11.078660705159638,-36.78390675078465,1.2369714546115769,-34.66343150529957,-6.371193257982242,18.092579862294983,-33.4863879466316,8.31158110846087,-36.24411390176993
0.3828125,-26.028351374515616,31.865765643521367,12.85335711623054,50.529302634729916,11.882096022355334,-23.065376817823534,32.807291444867374,-39.034866523423695,-23.947192375998704,42.670467465682364,-5.180497484177567,28.80142352400876,-24.643029770201426
0.38671875,-35.665181517196835,19.31047327553147,35.19104782231022,43.788156962080336,12.698515011720183,0.13707592120149992,58.55925785640724,-31.52648221278519,-34.892461358275845,47.14518211430273,-0.023781257839215475,28.57483508878508,-21.77489991602274
0.390625,-40.79701001694822,6.7952099538037025,30.667937512535485,24.663762964680075,1.82782614580467,15.542438177945918,63.639768141437315,-7.502175766874144,-18.680868432516945,33.12211562279679,-3.919812921710128,27.722504094864846,-33.09130791057305
0.39453125,-22.21068080791193,1.1431914282284783,14.831091257863015,-3.072247371402075,-7.284272965887566,10.789951441032057,45.54698699311839,15.448991188457523,-7.370441174371107,25.614171623742404,-5.299589299107133,22.109684980461097,-28.68645649792412
0.3984375,14.174710450749238,-5.321627969615937,15.56687512939671,-22.318662154634417,-2.5759869138867764,-2.485168830398092,35.63426802610857,21.520179002166543,21.043303264255314,20.28669520874101,-2.1356153379451976,26.103465269638665,-24.97096578413946
0.40234375,42.710214273470186,-9.336617267097214,0.9099273422849447,-22.56173933903665,-0.22874058995436208,-3.539672297410295,28.45263416140427,26.218496695605516,38.11913915611299,24.401942137114695,5.545333823875289,29.108954654054614,-21.797141036090157
0.40625,49.69142858856735,-19.95165676318903,-4.847035803767664,-19.942768943882953,-1.5484954453772337,-10.341565283122883,15.53902328101163,9.195197405446969,31.262694815346745,32.93164204328685,4.431077798824786,22.60348265310894,-20.615379454510546
0.41015625,37.911459681671666,-32.29059219803985,6.157577128125703,-5.426329079541407,-16.64365091758192,-23.71976668195828,17.370543751734214,-11.093039433680378,13.975051304256896,33.9603761616245,-6.305242958834408,12.688127148091377,-12.50671620135521
0.4140625,29.860086642473217,-36.9333439429804,-5.507335704498977,0.3047348263628935,-18.651462376948814,-21.413439695639397,5.350099924095504,-14.080746079559658,2.86372644992271,18.153939319875334,-11.455712050095483,-21.19946889417848,-4.235193791233867
0.41796875,13.727164733843072,-23.836348027621387,-11.963192597633327,6.674310469581779,-33.95499147408283,2.1815086918550928,-1.4476593435249177,-13.132948849368347,1.8515309432740281,18.754776422829572,-23.278659714075673,-50.969706829022456,14.329020505225884
0.421875,17.37891639862696,-7.745975776889668,-3.660329195370217,18.65543694715109,-33.78889327017725,1.7749450371132949,-6.158624425617055,-5.431126834454619,3.284798063268667,23.08935108267526,-25.483924745814264,-62.12942501498066,10.410729083242131
0.42578125,10.492904436728757,14.694815451236618,9.799949167675667,5.956361929798528,-19.636582505009045,-6.130310933661091,-16.13915748884716,-7.634913577265337,9.913564294135462,38.62201099250615,-38.454770346818485,-60.44993824484028,-7.61003362473561
0.4296875,8.710555441314797,31.21041427497054,8.27309602151519,5.505957673312621,-15.442905335993961,-2.2209233912000865,-17.296058940652266,-19.11768302022936,-1.0065196730131984,38.62968379735808,-54.53645296256675,-57.84832105068376,-29.50732970158811
0.43359375,-5.091684930128155,35.89080907157654,28.361282760065393,8.029551117807634,6.392736537406806,-3.165273169257292,-16.815190647133637,-27.354601052124707,-15.406543134963073,45.688125965951166,-42.88460256247709,-26.654889334639023,-50.16148104422151
0.4375,-17.11997125958226,21.916469555039427,59.70651886202099,6.353182376006583,24.565888134249015,4.398560792566545,1.877399998353377,-18.092143163729755,-31.013782943293723,54.29149833695718,-27.057320585620054,-13.928893621624848,-50.74975397193959
0.44140625,-25.227807760221495,5.449578797818653,66.74220284373986,32.406237515100464,46.786553844044356,9.096759518057151,31.933764507020573,4.57397640328195,-35.972888558253814,64.82085731169713,-10.475813578509218,-6.937373608530091,-46.145102534705764
0.4453125,-23.598143174196203,-8.288176918913777,57.26346603695654,35.86291667911156,36.82001094891439,-1.9700239381403428,33.396582453471424,18.614487432325962,-11.14202044158576,47.95954021922083,8.351361381493682,-13.462671254080245,-34.82831074972319
0.44921875,-8.426268644376448,-26.668513928050537,36.94759941941024,13.526092796217625,20.91724555859028,-25.7629302415799,20.138566846960273,30.365547893242102,0.9517648745742435,19.35585005521126,-5.746006865659929,-19.112790051648545,-30.45488022697412
0.453125,15.97967529465285,-28.130343062239042,18.020037657697355,6.167528964378832,4.079259982038987,-36.38553766810263,-5.860357033686978,15.859912009472852,15.490095523818177,-10.105573809808092,-31.99190398646057,-17.758649310301745,-22.984017160458258
0.45703125,32.936036106951576,-12.96465861831203,-4.8737366239256446,2.7996271591322315,-11.756582433422487,-58.5686970411081,-28.194169208212738,2.9480889769634406,22.333672576339104,-11.008830701425207,-58.001411082617736,-29.600381512211513,-30.534718826229845
0.4609375,48.582133877882505,6.1195305873910915,-21.96394563003876,9.652596763957584,-9.212807538967496,-79.30085381989034,-25.498612470305932,-19.708201439247,20.70944189997684,4.603601907055095,-59.471187634650846,-17.457096529162605,-26.545064983557012
0.46484375,57.082097570252785,9.839938771972749,-8.513612498876695,23.61367346488848,-2.0887899216125394,-62.981440855308286,-24.663972764746553,-56.96501281120355,3.589676133651092,16.11599126475241,-62.22793526411273,-10.639688585450408,-22.44998185818412
0.46875,29.283566783218426,10.889183237960044,8.884304459749284,46.635951515660665,9.873133131133798,-41.106250156603615,-5.3327134382137285,-50.02571205002991,-23.303286872501758,16.99350353533188,-57.76929400363305,-19.191839415329287,-16.265574182733115
0.47265625,2.7765967294292566,2.5772242025694188,7.788087089787263,45.09862245875957,22.856036114539748,-15.623776221497733,0.17528862425610192,-54.24537958237873,-42.120458919482935,25.49936425749561,-48.65443212487146,-26.040198893998607,-30.492113741209394
0.4765625,-19.73369756762714,13.369772106924485,4.904877252139127,39.34477012270327,33.82688493845633,-3.030875884667224,21.057120951482812,-52.440418352324954,-57.77585308379688,31.722586283680812,-45.83313593429644,-39.96551366592222,-27.419309029509726
0.48046875,-3.615867681779016,25.84760373822329,8.319544187350317,17.801669047622998,50.886786827140504,6.732096270774248,26.98926318073671,-24.443919517601493,-44.766529098351825,29.919327042074947,-40.53201015237299,-30.82725110131324,-13.544103604711214
0.484375,18.46134914646234,32.496875613072824,24.981031502851327,-3.496741552621663,29.29518768097852,9.328386345394277,25.669404660951795,-24.28096584484821,-29.442513285457373,41.89435229474942,-31.079896776683924,-20.567692299969803,-25.018317435960505
0.48828125,17.159866826992385,23.254808330954244,22.389799381224456,-20.139823242033742,42.40384470624056,13.460470130094626,27.225027425159748,-33.65710392215536,-24.14815222028029,49.18248336118818,-26.44833383739741,-5.0150174965862355,-32.04319256237393
0.4921875,22.407317791156466,3.7836106995648295,28.050145703658057,-24.95725071907717,47.050469794348196,2.0591329995840164,16.04288568438615,-38.64659843363907,-28.805096139170757,55.010538620621034,-19.67894344249016,7.167819425930166,-44.25992277401373
0.49609375,33.78063288959427,-20.648101025663713,14.554501806304227,-42.183635743354714,53.57952653769309,-3.4157661242072117,8.874477686406738,-39.27099112007556,-19.481098548683537,56.60556923167921,-6.52775292390416,18.85189351009885,-41.35461466337791
0.5,42.38178624746452,-28.738787576568285,0.8271318068713313,-28.99412252996591,35.633645120027666,7.304145931535536,14.772736950582155,-32.08475216303735,0.147484365140686,43.814120653174875,1.7623321665436626,13.391934439971696,-18.676444902306812
0.50390625,59.4052774617105,-33.93981447653108,-8.704481331854973,-22.996874391315302,23.15561009018003,16.720062924828984,15.140514069584716,-30.488193256334334,23.40820453406982,22.663838124293306,-4.0956643329278055,-10.9722744539003,8.828030977110789
0.5078125,68.12272962039889,-15.129233699479679,-16.057740990903223,-10.576481190221498,-17.21579022472714,4.714488355755477,-7.2840533930111295,-34.02921998247011,33.30716856404998,20.981083136767552,-23.796889947842743,-31.239406223567943,23.383736319568087
0.51171875,61.33296743787517,7.793696377899479,-25.083532046212397,9.144399908311007,-27.565104881538428,-7.307866798924678,-15.447947981696295,-36.49829921829586,30.698177253160196,7.778647553966458,-50.980516554698895,-61.8521521126727,21.057509924499595
0.515625,66.3238818508915,18.56974072018503,-38.39448553012665,9.731184783859021,-41.61453980782339,-14.956150716054006,-25.428899591331078,-67.66369698958785,18.264875344491788,2.1901604073535768,-60.96901410153092,-53.50050691427021,15.77726198170441
0.51953125,66.43967396910561,33.124842775918125,-20.375960901999694,11.018531803829745,-16.518034249654303,-8.50010232081511,-12.793207546348897,-70.74286133789,-3.354646253273548,13.84756297793761,-72.05364677214882,-46.30765903381882,3.892084254102045
0.5234375,54.714825192436756,31.545591533645915,7.306007871113981,27.453905027489043,12.379294794020462,4.7208726912532075,11.06845887555625,-58.02978831704314,-15.682884828391451,19.512404177318494,-49.02919029365023,-14.164266350156275,-9.37824778528304
0.52734375,27.68758442980066,22.105405109508673,23.37853694094452,31.265030135448516,21.130775466980197,17.00082572281579,41.97213867945585,-52.07880838542677,-26.962440578770533,35.3553720942642,-11.436036050004141,-1.2638302863476718,-13.031604576178726
0.53125,9.312571165143819,24.13314224755565,8.753119551482595,33.75156839053059,22.37831635164854,23.067533888362455,53.7804654212486,-31.981638556270315,-20.08793409470823,39.674366222486874,3.4005121919150616,-2.422156687632427,-18.31424326943547
0.53515625,4.339873652079667,14.091397205830747,-9.331848538187932,25.2917114124773,15.385824086954813,13.96939534490086,48.034082718273424,-13.573430350184267,3.2804205692768473,24.821243870189296,8.757297889884313,-6.9590152419208104,6.927162834127243
0.5390625,28.8478014942274,19.040885121000585,-22.79757241163654,12.262810909825856,2.970708870144297,6.757574483057419,55.73633047854236,-8.66571647524402,26.949655880855552,0.6735308411088301,5.092595875910239,-3.274307197578538,6.104021947725351
0.54296875,60.07322254828597,26.705568162506694,-24.475445704403796,-3.6518529746130204,11.675175945580119,0.3140629682824714,42.01447827190314,8.000170670324854,49.13722239630868,4.1916455693615475,-8.259551490633982,5.95470948663226,20.828187859301867
0.546875,72.03612501719442,15.722681093229863,-40.2155556242782,-0.655727019123431,22.204939863803453,-16.831124397800366,30.229727191894618,1.5071278999934612,51.68121615412686,5.887852023410327,-15.078142676695103,10.632417123100373,24.798041111703625
0.55078125,73.94178833843608,-1.282808925377169,-39.429406084447145,9.347410621261968,13.672601566635478,-37.854797424077034,22.947106790686288,-16.381748591525263,48.59253872804041,9.285936188288929,-23.406758864782873,1.417923746828359,23.308543684065324
0.5546875,54.354447665303304,-19.483670006151616,-43.239126362154494,24.512471059211197,9.724101782789452,-32.58173380650748,16.84346240529157,-38.782421417612355,42.969673700045085,9.474679618754184,-41.66228063579376,-5.847811901993811,40.73276513323706
0.55859375,44.360095187623116,-23.838705582099124,-52.67809110920821,28.53732046411472,-5.062455317102358,-22.60033464431605,29.600284185473917,-34.062442534017116,48.34695012634923,-3.369478892703669,-48.402555187122054,-9.129495955139182,49.37599673111551
0.5625,30.223367978329524,-29.80709409804758,-54.35660546890175,44.15532634807997,-5.483188525558579,-8.650904982354033,30.328180599917975,-29.192452293725704,34.366568429843554,1.4620809176584049,-61.786028338946046,-20.069615358036692,50.63448531211881
0.56640625,19.490383254450002,-1.9861588162561077,-65.3825955948424,39.28365562700842,-9.513516065214485,-9.431703723624885,32.66527716674476,-26.28024628795195,36.59893552969908,-6.34859438879074,-65.97113676192767,-16.343887343024534,38.981688584494975
0.5703125,17.772379822854234,29.070970765167942,-61.278581891889374,23.64587724627321,-6.166116064223099,-2.5101127825529628,6.761145633882029,-31.245267318780627,21.365493338364672,-4.259873052922308,-73.35528298204,-21.887344110088574,24.718046817099484
0.57421875,5.208706568389658,36.51453091428402,-58.84484208046045,8.356295371070635,12.589608435648426,6.056557948894631,12.605704226470673,-45.856023910983346,8.031862712879445,19.19539990912603,-76.78981038043705,-3.9306832201967534,-1.942706793558826
0.578125,7.6041174922267105,22.1077318595286,-48.13590865219156,-0.6976079569012152,47.8956664357684,17.106496001809994,26.48486439094888,-69.17202012402063,-0.8627992150740695,43.67601677483404,-59.7296903541382,18.860849851361014,-8.226490406575152
0.58203125,7.279072750289454,5.071527461025384,-34.17669250788371,4.188034905435468,72.02467227624622,38.746033409311295,46.19700101004067,-54.79419989858535,-9.335526792249269,46.37451828817625,-33.60621195699602,26.546717316267948,-6.416347919708204
0.5859375,27.76010215641933,-17.890029429277384,-37.37668947689676,-12.72399230270105,67.17174579489668,55.253550176796736,45.737030141221865,-38.15468237576829,-17.574678315933514,30.41171949496676,0.08481685171719766,26.45582131630354,19.30008492051415
0.58984375,32.2126124262626,-44.31675199337342,-50.23936837924306,-18.86059059472774,46.49080200753518,45.18339507677908,35.57782520078713,-23.75228956552651,-2.7047377180556604,6.537152987352628,6.7778446822398175,20.080546601849715,30.943649665590407
0.59375,33.436941809549324,-45.0561054176434,-74.37537164266044,-41.23029128293835,23.430637104519107,26.408204204950458,13.950412005940155,-6.862196754379218,8.732129421663288,-3.7494040129827515,-4.700816596215216,-16.896086889767,47.77695853517671
0.59765625,52.256844112779,-31.876321901581505,-71.23053654028185,-61.944690062950166,13.279324834492243,5.536934121352848,-10.696405266274498,-11.930928129070175,27.768590850062836,-12.789267215370042,-26.19648837134467,-26.089522675487995,51.395154009484216
0.6015625,60.02396851210029,-27.24641498495563,-73.55214504807363,-37.77851277827847,1.7218959059247285,-16.573383788095427,-17.718918476822324,-18.222275132352625,32.24754774977312,6.808034247180441,-30.156857032939783,-28.281389123756988,49.76558616413853
0.60546875,66.25550461589994,-13.90607683789179,-92.34183115721535,-25.641695736798006,7.009944717958733,-16.71464443573101,-20.850242459663786,-33.06419797155674,28.227093578584128,14.211139683197157,-57.08249271514297,-25.615831582913767,50.818067375072744
0.609375,46.32486374645286,-4.77985960042263,-97.30411322640296,-9.90277942025386,11.201884500197831,-4.869666929512723,-10.855682874699363,-61.51430327444661,9.230703699988926,29.36427239649495,-68.02973806444636,-23.18634025292157,47.312260293277866
0.61328125,21.242386450683995,3.7876528080258054,-96.97328630501404,14.389721859154905,3.5791233069405415,4.346296739991702,5.473064810654602,-77.04356848561034,-20.87493993675806,28.784199446992737,-50.028020537343174,-26.841102694646413,43.95820173557486
0.6171875,4.003894498834472,27.551542523673174,-62.98488149215978,34.63605673604792,15.719290898946605,25.062665142773458,24.196433075557774,-58.65717580966552,-25.62075996545182,23.533566948627055,-56.36501346571919,-25.872574425773106,40.38239081392753
0.62109375,9.358050328258923,29.833924416993675,-54.90093012229421,20.667205637358137,11.038382587617209,50.367412940038044,30.07107344892638,-46.18386039511688,-18.618741159800074,17.328957521250008,-50.923029286608,-14.301496695284035,46.061549778043414
0.625,11.840163002371806,59.11056896852032,-36.66165546818196,-1.6788758685697858,19.82812638032793,48.00741561862418,27.354962590862822,-27.512346278625554,-10.557776195191702,23.212643396555308,-38.369125580197235,-5.735506771799278,37.46055565309327
0.62890625,23.00333943975164,53.2508274343592,-22.86529394737066,-27.86238032102078,11.071861205207528,40.628832917643095,34.147423842414696,-30.15298492223744,-2.5682976021561443,33.47080942830226,-34.22843867404347,-11.989290202616385,17.23983548125212
0.6328125,32.1198966176901,35.42621603565811,-27.262232318783198,-32.72104161190596,17.911934560256,24.173961244028614,21.6903310947368,-24.99859760829631,-9.336456189966285,29.8474526130014,-30.54907186080595,8.141729710098016,4.719627442914382
0.63671875,30.569637994523546,19.89672717461675,-31.998872288376113,-21.75519152095046,23.66555008728918,15.760902932845067,18.415197784853508,-18.904557371908535,6.108725543092746,37.60811947396088,-20.544297420160127,11.925032075423836,3.9297198459480542
0.640625,26.66834697992504,-0.5868659050911101,-22.775943361817852,-19.263564275981025,22.593617358267096,22.221978408518094,21.78946556498505,-8.12692087775973,4.37486105482115,45.91884367391298,-12.697588828439132,16.834276691764,25.250651514955834
0.64453125,26.45107297166966,-5.922707299975749,-47.282456623637984,3.3214947561512176,5.1013304065526555,24.68376180309383,11.998881864358701,9.186658374068974,8.802902722494409,38.05099579747694,-2.877057537078538,-6.146398085038682,41.49919762737953
0.6484375,34.08277994784848,-16.606522598103993,-58.754120107941894,-1.2695644799697825,-22.05892423915509,16.354111201123295,-2.2486837381806657,14.885815785897467,24.569500665068276,20.997591712120833,-18.023733091918835,-34.17078807487471,52.28145153086149
0.65234375,36.381034279395195,-8.75961865534398,-75.74733376308706,-2.568204650010107,-37.513667933941335,-0.22280964051265173,-12.81659645911185,0.048052786958964755,44.21412658646965,1.0815116847063262,-58.69646516326567,-46.63962687784726,55.701760028676794
0.65625,40.81685508676662,20.405776157871042,-70.50973607620395,-10.476586017356727,-57.104746347274784,-6.247061052827786,-38.64704448381609,-14.400701855356584,34.53158482673405,14.063260991354763,-89.41531955982168,-53.58443511741064,33.55488155987891
0.66015625,47.61264027664432,41.16626226575896,-52.52828200677152,0.21079758977264482,-57.22757405470514,7.610382454017288,-34.09128082499614,-20.36950378492516,26.467743212954794,27.04790443351881,-90.68768325032123,-52.87110692748661,18.43585968840644
0.6640625,35.41233576833898,52.1206738341006,-26.891710095726495,12.05530308880293,-39.910131278481856,28.776968029383593,-13.497668636317053,-22.889656539270824,16.704572778137358,58.166048676269924,-72.47885935654904,-43.366812442166804,-8.952763542527071
0.66796875,7.0292807533018316,50.55293484977312,-7.89146893992598,16.68676139136483,-26.55730104463865,48.420102817107036,21.284924118348812,-24.239680228225193,-4.992983126108403,62.30715746851131,-59.03579408296942,-23.009502107177624,-15.883644569111796
0.671875,-2.556605958619418,43.66374301841031,0.16126469598309434,14.170673495028776,-28.054334392553702,67.98290691813868,23.85627376987466,-1.0034686057064912,-18.861342137342834,53.56767282267357,-49.39381616031882,-21.548367543478363,-17.679129417766973
0.67578125,-5.952590993958027,19.805129034425434,-3.0451696279708957,-6.72725057234792,-28.4534428121097,74.77882549662253,37.60575257753879,9.60237783940576,-4.11351198500379,45.0108539171541,-34.14183111379675,-22.43670273879198,-31.0548485711081
0.6796875,16.040549535794597,22.792472285094007,-21.519467287447192,-29.12289962383195,-18.730212418489128,73.2904031617433,35.587857969694255,18.858557767613505,17.049523406329268,40.41963399037516,-27.89172486926667,-19.691115975672513,-23.550439445881754
0.68359375,49.376479234751784,22.518620882279695,-30.49128073621235,-40.04953428536683,-9.945859230510036,64.53930104226004,27.403746749194156,19.629859800741734,40.19385545322105,40.191087060888684,-21.39717516660437,-21.054737154549706,-23.032635102947307
0.6875,58.56969237002317,19.062154479007397,-22.117041141477788,-38.95295112831901,-1.035639019719009,46.497487797470676,23.791984139269164,13.531327613927807,37.57244031639703,32.33106628335299,-13.453379214314328,-16.495240859471938,-13.86728173146186
0.69140625,71.62915590451829,14.838619330046122,-26.00828479321379,-34.581576176111206,-16.607272641449292,35.509127499162204,10.920700556599652,-2.4210217302743193,34.15965069737779,22.11324956479285,-25.794158083526007,-9.58873873558359,-26.154779215361785
0.6953125,73.20555917215201,-7.572368244561809,-20.80354028622455,-15.33901020847097,-27.419110115007012,38.13463539640829,5.686004896876771,-14.38244014723847,31.24931618477732,12.445116473761779,-9.077406108116472,-23.35914438227674,-31.738554575852543
0.69921875,61.79929178209943,-18.249275541113615,-31.39891868233295,14.181536689337538,-42.39565663633866,42.35436509530856,8.601654077422587,-21.510364391917403,30.363350637116696,16.540295088040867,-13.178872233092523,-48.38161448347715,-3.7813899554876267
0.703125,59.73540683586501,-26.774593921845277,-44.06585808159402,36.872701424663326,-42.91302016353456,36.62846235105665,12.980394454040026,-1.4369207245926146,35.63565393877103,16.58136812185037,-27.122298910786803,-56.484827766347514,15.782669315003117
0.70703125,58.12858246397575,-17.95963416385649,-59.82073661742709,29.828397242549272,-60.453792399462415,53.74908669501843,-1.5442063773591874,7.109898156105712,46.822953345450316,13.833285194639513,-36.99785158830892,-67.0823774006274,25.41725789480596
0.7109375,50.89745614165152,8.48316974158413,-69.67203525567075,15.548211246745364,-61.79241262030332,42.986222735269514,-8.327767996809847,-8.468886900967716,43.05855516488505,16.86127628025755,-65.10766137895541,-71.33243847683177,12.525482338792928
0.71484375,49.87594945615452,20.154233463555727,-70.59951218862513,2.9528436166139462,-64.21305608959413,40.82802967738001,-6.439131381842006,-18.924518183120224,40.94626912997964,38.92619370821624,-72.71072747091299,-57.13983304469381,0.7793375882708081
0.71875,54.33396343101104,16.662739506331057,-44.88738696744069,16.338231825019353,-46.21133391752075,52.636782352972666,-6.661479503550993,-20.9642398378865,36.40536099223789,65.34637823044551,-71.87465250403403,-48.6283299796077,-26.226387620580276
0.72265625,48.37960242671702,7.76967461838229,-22.378361133502,23.915790195746883,-27.067528061147602,76.29271983121606,17.724065196991464,-6.000087378365,26.115163190779494,66.40985124542924,-51.0196496292923,-26.456815642470985,-42.141759354036196
0.7265625,50.86304719537559,-23.10553432570788,-2.600989820758177,24.468759980830622,-10.425667811521055,98.09324178948856,35.97233303969937,-3.0727794525100394,26.790884746370143,68.14083932405939,-25.98400786976274,-14.80219078818199,-31.876714469478618
0.73046875,54.76198054884192,-51.972325670610466,-11.763377220474641,15.44271276762666,-26.334524864333858,91.73903191279534,34.60979000254531,-0.1552589973160256,36.83735847954938,57.04924509616353,-16.379469031849993,-21.456196349470144,-26.701619522889448
0.734375,62.105961435280655,-59.81160182742723,-47.54211127023666,-9.435335060826775,-26.916700136434603,84.92313384031219,5.960112800494458,5.525100850670096,35.23047575039357,25.01462550688342,-15.452238229988978,-34.3983438831943,-8.116649913612873
0.73828125,79.55601151480798,-63.07577369694983,-59.2543430408811,-2.9302395635382217,-38.365579484418774,64.33857853564332,-18.110927954549144,22.21682782612865,56.525019047537995,12.395160432488801,-24.599003106671624,-33.00708227424306,7.20203178256506
0.7421875,87.29594698967537,-37.3047029653602,-78.36701434599236,0.3216876769411614,-48.828303117273045,64.0677310310874,-51.05053487460453,11.6408055615537,78.26990450698149,29.810070451782508,-47.46344931781322,-29.877764003103575,24.062678893388995
0.74609375,77.24651084907663,-23.82664241133376,-74.72375167161691,13.557224921744744,-44.18012541659272,55.96790323072159,-62.169422266903,-0.14264756991495708,64.88637223097027,36.19859901446843,-66.42133338863688,-23.425590519896087,23.996517755535088
0.75,62.71696595096722,-18.06108011450404,-73.834658393216,12.384265027902163,-48.42631257783553,45.39479071181872,-67.98315847238197,-17.774679533087284,34.18384398281772,40.650685385477374,-82.51927386185473,-27.92480022717833,10.600485050858223
0.75390625,30.143306695825395,-19.533396549054412,-61.74258717653178,34.182478462814146,-52.3478449734261,44.443515107155974,-58.88909265425095,-34.56764293074894,11.45476156313423,48.39373231043912,-84.39320887298571,-54.009286566489266,8.355789834396031
0.7578125,10.614434697956183,-6.5294492534820066,-61.99376856794176,41.48572683666391,-42.49412854747598,41.21828691604564,-33.06781091852305,-26.47795327265222,-8.389599991424898,55.82436020509425,-76.78769454658082,-58.968866622780055,0.48407385286811766
0.76171875,-1.1825401168404945,9.379584062263621,-45.27816062776063,32.01015853094934,-25.427894140195484,65.1003469186397,-21.019606297817912,-22.82081766669795,-0.3671660540780927,50.77973631225294,-65.01730684324048,-57.675913054177315,-13.533667294779042
0.765625,-14.935953427694342,20.195580641119374,-40.68733893517219,10.647655844071666,-16.490286241940847,78.19136122274504,-8.397837110141785,-14.547422284009755,0.25028160417756795,40.954435871095626,-70.0458749822556,-50.910283520064525,-20.388965816909327
0.76953125,-7.923801635536995,27.156207460628046,-40.422776221747334,-22.230759780925183,-19.539467180626204,75.365817440102,-11.920354407939275,-27.433744065303564,5.64350476846668,41.251928836288265,-70.55557807601302,-40.83284283782084,-19.553018740733595
0.7734375,-7.389565992012594,20.48609534009482,-47.717811758809205,-50.80523264375147,-16.106489693840235,46.08354599963691,-21.39240671292074,-25.71383149515782,-4.505194297036883,40.868637916591325,-74.30061617464523,-23.66165786856605,-32.34810081571021
0.77734375,-0.9227248374920222,12.315560684907068,-24.607190225949388,-55.04966635168236,9.553862448389964,31.310914115015073,-6.387185466045446,-31.022011281206616,11.100341353954224,50.70609805413318,-60.15116116183545,1.9594177310203826,-47.32296683467413
0.78125,-3.513947463650353,-6.338545164804227,-24.139313986722172,-47.105907801478466,25.640638053000785,37.01687165203993,9.189219208274546,-7.213099973270303,33.67587345777454,50.16447109757561,-43.7967958354224,4.96118212715881,-35.09601641018515
0.78515625,-0.9670166088658855,-22.4975210250184,-27.878732845493616,-34.00218614654936,11.21959330646072,52.61187576298495,2.1716634925428853,0.9109435596552357,48.728950732944284,39.93095117376611,-24.069679327163907,-4.6251005202624444,3.8893614029881824
0.7890625,15.70226479941824,-37.44317472124326,-54.41640454285613,-15.835521096306334,-16.575788791756555,44.48295833510441,-6.741313870543672,7.716290889359787,50.52632585375062,23.471480943829206,-28.10091690501951,-13.090496052852851,21.25826582320159
0.79296875,21.72838916648013,-40.62109867258479,-50.21318205511709,-15.637516456886772,-41.72695878816815,37.809712753314756,-28.246278156016245,6.930019583467879,54.67617300682442,-14.616275736769108,-63.82112580369522,-50.44310913931391,30.012020834854102
0.796875,34.78927768360745,-28.1581079719951,-59.58094004699285,-31.59635399209887,-55.715942607071874,18.05186238275289,-40.4883477327854,-5.295118610936129,42.539474034062216,-28.171471156504673,-79.26174326144168,-64.17805783600971,23.462520617458928
0.80078125,28.803465471467113,-2.1483305248830398,-53.09835559238684,-21.34625940996883,-36.4334544098793,15.453473740859565,-52.8528751516878,-11.32942010897564,47.52346883904602,-17.614017095609476,-96.08874509053388,-76.06902358108375,13.56449214723873
0.8046875,39.209062035806134,21.102549221584248,-26.751732431641067,3.183193133036043,-28.674719150380543,18.034830450451473,-45.562768794355776,-23.042134135792054,32.61708854537534,2.871356670508095,-86.99861286094254,-65.41322312099943,-11.299785988591688
0.80859375,31.47589411050849,26.349351393341188,-0.24968796492752188,12.116841116932209,-9.90328673536305,38.901537068858396,-27.332095432593473,-26.6076949370919,10.907549142397313,9.71060047732559,-81.30945775651641,-54.6790410084958,-31.123488917345867
0.8125,17.485709269567838,1.4301351337142376,12.171915786479868,24.9489726221367,-1.9593215593577673,48.94097184747879,-19.76258996896795,-6.270302383350328,-12.429171899877074,9.812503100863935,-62.63632410499369,-64.55052243858957,-23.71386745708273
0.81640625,11.476220096790842,1.5110334577423528,15.545787759128341,25.367609806108614,-10.397179786993734,73.90008872943095,-3.8556772621102047,14.443385155908832,-3.528341422203132,13.474979803313795,-31.893409102371578,-60.17527488306719,-31.87322656445656
0.8203125,19.30739918758433,-6.11730967628605,17.88546790774565,1.4651559669711247,-26.650028988869447,77.49119051088066,-0.4956915331274856,35.86420404630175,19.442210328522034,9.467588388913157,-14.574306946546056,-58.14233215887198,-17.665487284859452
0.82421875,40.04315767342934,0.75746495311661,10.275859739307883,-12.661755809145587,-27.025126018506107,60.1392112234486,-7.866111997220545,49.862137218636676,42.10131554323044,-22.272785174055592,-9.211252482132123,-38.970973749258945,5.622383829097512
0.828125,62.691923370983176,-7.1287721435683915,2.3302661783935,-27.353759881653417,-25.615986850051073,30.83068394849866,-14.66254572123102,49.680147482453535,59.67974097334079,-32.798688821800916,-12.170319068393987,-29.414695265280425,6.648944163724943
0.83203125,64.53365754317862,-13.238596272406012,-9.255312629625047,-27.296943395677605,-15.952859478046923,2.98049689884306,-8.965731051201853,38.21991196233592,73.42425151251942,-41.091840870535435,-29.924687924240278,-28.770569445162547,10.921035553568645
0.8359375,60.61291198891926,-17.5793092130122,-22.29815616775081,-2.7297769167830532,-22.246495545122738,-6.699358564823131,-13.572564406763576,26.165303709124913,62.509859598649804,-49.21704039761931,-23.173768979477686,-29.249400295515485,6.803792007225093
0.83984375,43.1196859153483,-31.246421255473507,-13.457310224892556,24.25909118804041,-18.903370965495757,-8.786754030562056,-8.838836945410707,8.572546702116078,50.673898946460135,-46.49201826093253,-24.278840268450452,-19.112285168266446,13.918522061825541
0.84375,28.983502282511452,-20.467847341343195,-11.59695951272861,47.66639224124425,-27.407745684271568,-6.422270597709839,12.021255380534575,-7.986866332651413,42.55278748677728,-41.71200941680553,-23.269542552466035,-29.83784096168936,29.923176867138032
0.84765625,31.981501024749246,0.0584036368905283,-10.67103642663653,57.54373380395691,-27.965957810428115,4.710717304578588,17.900351166963308,-15.619462672106152,45.92904760093904,-38.35771851406419,-32.75667057998519,-55.94515102004483,28.504927679648855
0.8515625,20.032579772486756,12.342538237293454,-20.156172912554663,48.68823088671634,-36.854544432169924,-22.116686888151733,26.313594254617726,-21.447557259451955,41.062383541691204,-39.7342914943859,-59.33831565854619,-73.69548067200701,15.397895003761624
0.85546875,11.53674850926395,40.99927713422013,-19.79422171242177,25.85088462733627,-34.109616720117444,-27.254747150477705,26.774432259603927,-29.22438636305013,25.286063340237533,-23.15146873150968,-86.65011901007234,-66.37404154318193,-0.9882586836073676
0.859375,12.38696987328083,54.04025451865803,-13.51659798996115,20.472264169301017,-11.057421331816908,-30.444350038726768,43.43730478419893,-30.37366245928254,18.572942800627523,-1.255457859603911,-86.26580060034246,-32.747328104843945,-8.012738761722783
0.86328125,-2.8949922021728507,61.16605554205515,8.623628856377062,22.505620898126104,17.27727355856397,-22.491891914988848,60.92102244827382,-25.443619822762912,4.727546308536507,5.545813303380658,-62.23659453762902,-10.031120299534109,-22.30916224552203
0.8671875,-5.057836313053499,26.767277386420467,23.594284518540434,9.761490613863213,44.97125952381638,-7.0973436344326295,78.35149799127238,-24.396557052390655,-2.62651254642156,14.659296823254435,-36.87800224684153,-1.628875137699899,-21.6579528713139
0.87109375,-2.036394332474019,21.39568523345719,5.3150942434046655,11.837892147048327,43.75596867622455,-1.2601061770557735,82.47975593305239,-20.318997108060458,-2.235530015085288,-4.019228775975817,-12.584891737387236,-1.2641312377559992,0.19589826944402533
0.875,5.658591024502301,12.488651716459023,-1.502972616939774,8.255858728700748,33.38703450627924,-4.144256677819303,78.23629033730953,-0.16044287225777443,4.2140500486370325,-23.20945731302041,9.277170817801968,-7.713800263019391,-1.2689911424564826
0.87890625,37.56819415144118,6.541500160824966,-25.390967263994007,-12.01472385901667,4.882086194788418,-3.489566027629313,63.212149132576094,15.245862772571282,11.877814719680666,-43.25642527070506,5.4388548340782,-11.478730315481975,23.460564007651868
0.8828125,52.785863625555606,-0.5792942544621621,-43.68544513463049,-6.834626680170695,-16.437408448952343,-18.132234291304698,53.00618952192964,7.487365747888319,34.13748387500052,-54.040270495770606,-11.158055683067243,-29.384747924049734,23.434802381385282
0.88671875,78.3733614949457,9.25687539113516,-48.083081927300185,-7.369740769364405,-25.539890019799248,-22.74523886609739,37.99655614996092,-3.8395157377275595,34.69218324384438,-61.06202699107328,-30.2774389301532,-32.04465125122582,22.614725244942008
0.890625,66.09728656886914,1.8106253311444003,-50.74337324627259,-4.5018857181529555,-28.26328205436601,-30.8147911818179,27.153566039236555,-22.54395094348849,13.675098007598613,-58.2810868382868,-48.128082981648845,-34.53151170740406,25.03701103233572
0.89453125,39.05295488799351,5.306293710052018,-32.31861631147184,20.414067163392424,-32.89746759955336,-35.32843358182289,29.20398346868511,-35.967486898535775,-6.387411594898121,-46.72497875354413,-47.96818523068643,-41.293746285091935,27.301572653588053
0.8984375,18.434017773585737,12.233018538858573,-14.383040786564177,39.305682948643835,-27.40634834034982,-0.5513289762100032,38.58871703003067,-34.18123205858037,-16.546296258896863,-42.32322122571175,-45.5925698434202,-36.85837957743338,23.214447309920573
0.90234375,19.797693593508036,11.99799037415239,-3.698232083170905,65.80825830099539,-26.608725203585692,21.11236144483625,45.55116641291204,-30.51601927699867,-37.7630557718031,-38.68049568668401,-39.32184611534453,-35.83124274422519,20.940023052456745
0.90625,13.053275480960316,26.347986417076594,-22.185435231497983,52.908664709470045,-13.193676449334454,46.91007595294356,57.21587239284037,-9.531411850610038,-34.11320103059414,-51.115893564685365,-32.61622521189076,-43.99046954710863,20.05644567725579
0.91015625,3.7408789602406936,36.32530980267894,-13.08721061171192,18.627864704166374,-12.856053229419448,40.24710868808225,57.30892049637815,-3.517809863713066,-32.613151523570764,-53.47507344027206,-26.728208432578057,-37.795207219712836,20.48372689171485
0.9140625,-3.589660925972256,44.55892857013546,-18.50021974607954,-7.579006920218241,-1.323494108422472,30.17808080931783,41.88782504997835,14.10692468207316,-32.99744395888262,-63.51276039115624,-26.621533183705882,-38.02118412907399,8.663259226592944
0.91796875,3.2416717186474493,39.937772641735265,0.2855090915088371,-11.941499787654262,14.051096777660897,24.279428709658294,32.02577771704607,23.051485588368497,-22.547895727676647,-54.45926709965078,-10.125678875991555,-20.845883548809063,10.18376862951177
0.921875,-6.844106021691987,19.036379510938843,15.86764145764985,-16.085794947565592,28.14424246151215,19.525895969953837,41.83841705140419,33.862039544147756,-30.374843260175496,-43.16018306426925,7.858433968611217,-6.560758966872938,16.102265676759057
0.92578125,-16.457331731163137,9.551635302647279,16.132330271449153,-18.887480235250923,35.186584118050696,27.68986571846087,40.477127374316304,54.580290516777,-46.18877019861201,-39.35886710279304,19.71924013923993,0.15887607649455238,16.69508350127453
0.9296875,-7.19544381154257,-10.404363931140743,11.393940398346324,-12.27704939382801,18.34063961738863,32.822327346254,24.679200328616723,54.24445026046514,-48.33760033534956,-58.590428396451486,21.075864635140977,6.363504567592999,36.832068437300116
0.93359375,3.5763651788488504,-24.48511670751379,-6.8482052889634915,-25.709512533455374,-9.53312717889281,1.6676802144000957,-4.146669165383554,55.37484740942795,-32.88620667618304,-74.44288200349787,7.469331737526628,-21.02640060056921,43.673996477763566
0.9375,11.215453189338966,-1.232933010174761,-17.248733018168828,-22.393796781345618,-22.435715955077313,-7.229832694285257,-20.832940881931176,67.2362586396901,-26.636445347964198,-84.97563580660858,-11.474155889557435,-25.591971925462808,46.14131493691683
0.94140625,16.650080011804583,39.47735783324195,-30.750546992513677,-19.878348184002242,-25.17285641868157,-22.518921641349365,-26.353351371258004,60.45070414607582,-23.161559564997557,-89.41085804582151,-18.999295624460526,-16.642267102827976,29.561498859886896
0.9453125,12.902258629277028,58.54653247897112,-17.797878162360846,-6.5261299409189775,-9.58924813808751,-42.82404354257514,-24.593763098093042,42.14167231096722,-19.57902523673137,-78.66291378605692,-21.81018190739346,-17.92654573523837,7.980090964429701
0.94921875,11.972042441568316,79.16697413819612,-10.998525307500843,-11.289585665066529,14.144489001141508,-31.13236611014081,-22.949762192403153,20.93146731010405,-40.23853486769092,-49.538552785174225,-25.689279606260452,4.640121781970408,-16.221330328138063
0.953125,-10.710382132884746,69.94411738619272,-1.8980427146741774,3.206600381060065,33.79096632940583,-8.949399570699052,-9.625444096721239,4.738395865491731,-54.249485051811575,-24.240968878172033,-18.888440070979957,6.917258039702143,-42.716120981130885
0.95703125,-19.64344064730551,54.89412274177721,6.826014010810235,3.6582763790453603,34.67253099746707,17.155166855821857,16.38384447028556,14.24291290780706,-63.38715192423746,-29.415368014572493,7.817623560079044,13.446809170320948,-55.568756200891876
0.9609375,-18.61834562389015,42.80153134649328,22.406240536104455,3.70396236488493,17.54772409765132,36.590564747938636,42.530933350666004,31.316760019220766,-67.93102543513511,-23.510279420301817,25.847630860232705,36.80705532752079,-38.262545693547004
0.96484375,-4.596485304325112,50.166144737770665,19.272321338394704,-4.761032553087975,35.521024252108234,44.60805481642854,42.189970272244224,51.353492139028205,-50.037818468776166,-28.305868043144322,38.804450495129515,43.80909487658364,-34.205804939493234
0.96875,18.115313442941833,37.57566324487507,10.45501797634894,-34.60869875869028,33.76526857947778,26.813727512766214,35.57888548382997,54.8114333375087,-39.15215525547357,-45.39424191931275,39.736461546831016,39.10675300954631,-34.62338408893224
0.97265625,33.320653042332765,33.02503999695522,2.0834328002963405,-42.46415470934208,28.859304657095723,8.010068792173232,20.794382916355957,53.53014317315049,-39.49958671320771,-59.595198837078044,36.73831703726624,42.03016245789192,-35.46124210606661
0.9765625,29.345985134037512,19.50008799359153,-7.62354040799875,-48.752438767591315,21.0879710429815,-0.9997554014163917,5.786532918526324,35.10636648049673,-36.20819311861034,-66.09429823229985,40.4368231686962,32.941787781580096,-38.51776290582673
0.98046875,42.97624873439527,8.586649610498572,-17.463526784475597,-37.9082767954478,6.327138667238987,7.493925486987378,15.457606827301316,22.187021632233392,-52.97374292356934,-74.09396398202328,41.78290618888133,39.60678098615536,-14.052910278447152
0.984375,32.497013826201595,11.293009582111807,-30.325379156562498,0.260037035833946,-15.425028364711844,14.991528920808692,26.975837689278976,24.147968000199207,-57.10029167801636,-79.81741520813979,53.95933008766096,21.111035236812917,10.500822047572493
0.98828125,38.5474003719571,6.972946181644611,-40.847742151746104,22.85475078614937,-35.033269702669564,16.936783170283736,20.08735589970253,24.63833516070629,-61.574737846760506,-76.78571672171142,55.794773664764605,-17.66467865153888,30.201453378706734
0.9921875,33.98607222751376,11.01281428638754,-44.058067216580866,41.615912424363124,-51.39229482905964,17.098956288408285,10.702152702624163,17.32676520183994,-56.069755250546585,-84.00460668051531,36.766273920059895,-39.91338849382027,37.41659972361345
0.99609375,33.0444279697876,35.45936120897854,-37.0694065424246,34.21513811927614,-45.527055599926,7.283067173310032,2.1250113882342663,16.374228177182065,-41.460483500065315,-72.81212433794522,29.290849795783224,-45.82985999091375,36.05216177705436
1.0,35.516340727689226,64.74995282207506,-29.009033841992185,31.17682684077674,-29.949068876871777,17.58661223674143,-2.3353929358853778,12.251332301000645,-57.72083808511515,-69.08764486039958,33.266150580862195,-26.63281230131739,29.778849061069735
1.00390625,30.262822215017735,75.57624311516163,3.944894011654733,34.86663904598912,-2.7703009227257325,13.298170717985201,18.109807442043305,9.92464963844091,-60.89000529079938,-41.15142784015903,35.60520805664999,-11.279665656432549,13.068726010329595
1.0078125,14.377052544963952,59.96411383725384,37.41083369140262,31.116671087868305,11.279211820440684,24.95652722659763,44.669437273204906,21.50584035354043,-70.33780738390152,-20.90184776937169,52.55429093971916,11.905401338107783,-5.320657053018242
1.01171875,2.852416067311278,30.3962126099813,47.83868052533849,19.754984146399696,15.769133522302681,29.620731798195116,51.809553592679684,28.54769618606005,-72.13734679356944,-43.40342376031199,75.1517178168856,12.623454151511597,-14.217864127127136
1.015625,7.961646504679383,9.744386373065286,52.380801017871256,8.435886632352378,2.627347213953006,20.665770908374185,48.87971772194759,43.15490884939091,-41.13283778140729,-60.27946499139936,81.93243427611111,9.764053869911898,-7.313912793231374
1.01953125,18.140486392570573,3.7490786036656782,45.5030897324353,3.8883577087834005,-15.945579964582599,7.062128710368909,49.45308907083951,63.94821990555418,-26.488837739144483,-70.23336849611218,91.32669949380293,10.844428787395099,19.04571635891663
1.0234375,34.35407888499137,1.814530518683772,26.859223852448366,-10.829703969168289,-37.17702429759137,-11.63911111696083,40.474696610958205,58.831425925414074,-4.898562643075278,-73.16598666187295,72.48876016979027,12.392706147792541,28.08804867829388
1.02734375,47.81984505478129,15.62087505465624,6.760649669618549,-25.110344459597837,-52.11362261031424,-35.41666692362904,8.89271481604178,48.200055214080145,15.164802321085503,-91.0551880691198,41.23858781885556,15.929303468199606,35.97516492720706
1.03125,56.26028505615296,21.937459278838855,-12.496716166792643,-21.712501219807912,-69.5040313148593,-44.303758453331895,-7.1884417633954065,26.163033998923332,12.762403273126765,-78.11863960603748,17.97555318252691,4.82822993736118,28.57448656939249
1.03515625,56.96931809721814,14.856277728290268,-12.748400737289137,-9.153629403635682,-72.68049250240486,-49.155829288650175,6.304558176713564,19.15645627869342,2.845767566213042,-62.882369579106914,1.432013102517562,3.8978126422447854,20.080225172398592
1.0390625,42.95450991927024,13.106611820683545,-2.4121071426029426,19.749964056536445,-62.51921393353114,-29.650523184297846,32.15650822587747,11.03115341285443,-15.926828968873082,-52.80500379583291,15.788176246615588,7.734673123380533,16.536549788627347
1.04296875,28.310928645011924,14.77847237591819,6.348006719878521,32.48400006552846,-73.17276373907492,2.3917625195998102,42.64323242516504,17.467488091268237,-19.793556002979066,-31.07234501796006,13.333491113644822,17.886261889068805,3.295754091146711
1.046875,9.851684884425115,19.975565462026864,7.875766998609497,27.065736555634462,-58.660872633098364,30.54885377825153,40.99208762126834,26.83988240873135,-18.572680806664742,-9.202716555849513,16.233913165633183,11.947566350077867,-4.09087506730571
1.05078125,10.020178134627127,37.07355033981359,-13.733702515088947,12.856801814079422,-44.585636942957365,34.59622177876657,42.88050080479995,48.295504072356465,-17.38133953011345,-15.021255150126045,10.447651384191982,-1.6709631870504578,-16.23964345985699
1.0546875,17.06239540276039,42.7441849276536,-7.495461779878301,-17.204616466094535,-30.31599635695526,26.48939959929983,43.26330209171865,56.61211919683649,-1.8331136982602825,-17.58382578446441,3.7878837382080466,11.924216369810058,-32.47236600184643
1.05859375,24.142593568984033,36.89988659273625,6.932002963489583,-37.56198421536336,-10.503445388697287,27.827907718355007,49.34017244361048,46.24524966731248,4.251680563195447,-13.919352562387044,22.981274682464733,42.097584765150515,-37.57655544028327
1.0625,20.157405171203223,33.471429611537545,20.07276842582389,-43.817245311727646,9.686278331424614,22.270001763407777,58.652030906282,57.280930044775296,10.1482008236169,9.92834752901321,28.737932362090138,65.17540294140493,-34.708122488761845
1.06640625,13.046868926755783,8.914085123469437,15.102844925835651,-43.07460632613852,21.002932047482116,35.73461596721855,62.80604205367973,50.45737417864178,6.078229954376713,4.628450894875719,33.66103573934026,62.09471604093446,-38.65616044088234
1.0703125,5.861645272096165,-14.397535103556285,4.700579715342919,-26.77657102857254,10.526504537318306,37.99199943991064,52.36314775827658,43.32563837483282,9.881502941300571,-17.855592326542176,43.919710079411985,63.9900631657536,-32.28242065197003
1.07421875,15.076724991459635,-24.30551961346609,-15.265516170754763,-32.58015119827327,-8.264293246753429,30.86731002517416,33.29581316853927,32.76602774249562,19.616534789493237,-43.106002183806794,23.666231890981486,38.9491518656105,-7.358406593152413
1.078125,38.69339981225178,-8.608318207950905,-29.747619659215818,-18.8604193238136,-39.93057884849045,26.714990299768523,21.89438044586788,47.123981080920615,36.24358267101534,-61.4320165172352,13.711999489770385,13.18953161022322,7.279503396757186
1.08203125,46.225394005342764,10.005716931632726,-27.093669717616315,-6.393153861841889,-49.01680927763664,17.991815789254918,1.9675391530856132,48.26579078488595,47.670174963523635,-65.69729483903538,-13.457216016002851,9.179543469002843,25.079852620030415
1.0859375,46.587851142285274,43.109315382342416,-26.482945736410027,12.264541852276128,-45.668248087373335,6.621114741554033,-19.85547339531072,38.62310217565787,45.024578209784636,-61.0403036854546,-43.05306496196671,18.256625144796367,14.082740455024407
1.08984375,36.46321787596436,57.36772736366689,-15.604485633254555,40.34328708871901,-35.13996855248497,8.468963004994718,-19.236863312108397,22.419470296968807,19.906362209236036,-50.9742545197232,-53.329229717633154,8.09091250888413,0.15448346603918486
1.09375,13.945171302004805,48.155364854861354,-5.122490399496633,57.92927897420824,-13.992392549727573,13.111475102889623,-5.307955807109067,12.190909236219545,-0.45398023208297,-32.004166771030185,-61.37049875440995,16.176491720115752,-20.793322460885012
1.09765625,-0.13813841856839815,58.03046759477206,21.728226049602966,70.14062435521286,12.282438109081443,47.19242993657283,30.394281048074696,15.364468621897194,-10.131599120167468,-7.555806903163993,-47.89312258925329,32.46197083700321,-26.485957013886562
1.1015625,-11.6819441322043,51.56335632102706,42.98120903098541,61.32827378897903,16.70617180129705,59.805837691352934,46.86414710547961,37.13608583621569,-8.71208236789552,-8.955440053179709,-27.723315695861697,37.61833753600939,-14.194148585595535
1.10546875,0.2545347296075229,37.12250904766431,42.862664593864146,40.78062968604329,8.957658290800882,69.55662568927912,38.344155809953165,56.16270544262306,0.48402704173353683,-26.86465090946043,-4.714169582642798,38.45670659707439,-18.186152481669012
1.109375,10.270553145111766,41.1433414842681,24.21786669481003,19.62680280230415,11.173321075304694,49.40359836555204,34.4477342359566,59.69523796969782,23.455547685091588,-38.64114496335246,-2.412863649655748,36.19562475897985,-22.558580649277932
1.11328125,30.554077942915008,50.03554662241169,6.411553389228082,-15.36415806065014,10.372410237666635,18.81399145291672,14.418924958366224,53.518290317309365,41.16086649997222,-47.265689866301656,-12.722280979589904,47.79944999771759,-13.073173847809949
1.1171875,43.28411147940073,46.398872554810104,-10.401143102712606,-14.23143855532505,7.470809029740362,-14.112064646764956,-0.8175274550600342,64.16159028358464,49.451862365225956,-38.150521375054815,-9.34402551815785,44.684391994503784,-17.219627357132023
1.12109375,46.089817198732405,37.31901264302608,-10.156759718420567,-15.519077150094704,10.364059723911502,-19.67515430285233,-11.097430042729577,51.69913485637573,44.975297707752674,-23.045073606720543,-30.54302242999,46.67331411503394,-9.59644074750946
1.125,53.64341832765134,29.787373392576534,-3.151606169185536,13.70531805596662,6.353018714147165,-24.700403535060303,-3.3527829394359756,52.25882207526838,54.10047783603083,-31.59335614662304,-40.563914847599065,53.79550953712828,0.6803554981998217
1.12890625,45.36944153193339,30.281626194265993,-7.66943377524248,27.130099374737124,-4.23216555253055,-11.792408968153891,-1.4377543546481963,59.36857677634367,54.933805205968284,-51.68603139488102,-55.53212988145256,29.67857687796496,14.373831011009873
1.1328125,17.4037464440997,40.49283157152431,-18.425598826497595,32.01969367713956,-11.089171754463516,-8.185580819451813,-5.157653928449771,55.939014252856325,65.80995599576087,-53.40523779330401,-57.530525062016196,-5.688385766322951,21.809390075444774
1.13671875,9.288830136669064,57.84275401810176,-10.55587399118927,24.67942059030788,-25.991084809870006,-3.5964210260335605,-0.7152734010094863,44.977554383586586,48.38228064064337,-44.60353836455552,-63.54962918806813,-16.805572488247503,15.778019618619739
1.140625,20.203380796785105,80.64204128890678,-0.8568663116264856,6.227345880865652,-16.25601534627391,-6.394311931289475,11.753725251182106,36.26337254510885,42.45744777873373,-15.89562154856812,-68.66002949271235,1.3076862395724524,7.593184435006863
1.14453125,7.7619664620345,103.48377210702749,12.170283071478277,12.43441172294933,3.7112104762340046,4.275802834409107,25.36942871108215,31.97208390647766,27.8670944965869,8.416335729093724,-54.99424364832022,19.572635561682965,-17.3016029999931
1.1484375,3.5813506436642473,95.24654683995841,23.918953794568303,14.742133869363219,7.467164085433002,5.655230236594492,42.20460668435326,43.022517663947475,-2.5602259517178694,20.54444087265832,-38.16631066768374,35.93624071713517,-33.81069900233384
1.15234375,-5.372622957054503,81.60313757390443,31.920587521422185,5.828727443824375,40.66086208256111,3.1176187616564337,56.434330481657796,52.812925402860955,-15.448384021306019,37.149344930266686,-18.195981126304858,51.22325378650682,-47.26814151521837
1.15625,-14.724919762631483,55.23378371855688,27.82271737300185,6.10507306724071,48.78925993281173,17.272760639067815,77.18119100729072,68.58974328310693,-10.410608473449924,24.75718227672921,-5.699752662839844,70.70297766776008,-30.79073785131589
1.16015625,-3.5582233787500988,40.542120806903775,26.022209047946838,-1.2826398189278536,49.50558229663895,14.262411881794394,71.74105338443194,85.97283525144792,7.055879456988129,27.825887852025467,14.10207236942462,63.92939072071253,5.788594064106894
1.1640625,1.474917019153097,34.1242538592298,10.596992343914211,-4.7467376834452715,21.97561528251669,-5.6740540089165314,50.523916807762674,101.30657036162862,19.52597196424933,13.33470819988377,21.908051366284322,69.92139074475523,13.311159438426115
1.16796875,35.28880510203363,32.29984410603101,-15.209612044613163,-9.34321718676085,16.80598628493801,-14.556009995526377,17.084749994844042,95.97650594561593,40.533166854113304,-8.646958466055715,15.544966518061191,58.17241254554979,37.01502631893633
1.171875,45.76824325652989,31.75268980907985,-32.979783589159524,-7.384557898914194,-1.2045039324245623,-41.60255916555207,-1.9991237319742696,75.6002724042048,31.622824088725,-22.834381681302002,-5.843047435129214,40.745261876100685,33.301658710811566
1.17578125,51.11005853647854,46.13426644740825,-27.79960465907683,15.105416839139709,-21.385925450417066,-65.79966961486286,-13.415347356670399,44.020599636832934,31.52298746277403,-13.794816598010744,-25.324678896292777,46.809615770964534,33.568353934557635
1.1796875,47.894622178497244,44.00489491097563,-7.114448622446355,40.9436362725825,-24.95115667758064,-63.28121375450587,-14.513255390040701,19.939651430220916,25.766955238185048,2.2583558531303,-27.31964723509652,43.83348118892898,39.02854816062914
1.18359375,40.50626457694004,41.38217659169402,-8.25449933061795,63.34046925357066,-28.557818138900586,-46.87485213365945,1.3321448789796624,17.188892581345243,16.028392362614085,14.28500885904943,-11.20372306430247,31.0295442656726,27.927855495591537
1.1875,18.215513810937434,57.31477809071358,-5.43140530384112,63.74029993358731,-36.417283624405634,-18.55616205590227,29.18109648076534,11.45416119878993,2.2805383156235526,7.647156498355182,-1.9242900845625732,24.01511668351987,25.030222166551127
1.19140625,7.147377865637146,63.15075816817693,-8.099831819057918,50.65667910733428,-53.43276157668548,-20.34058603469127,34.101416046628565,12.458640440817346,-2.634445738024571,0.5066526426667071,-9.818709467462511,11.226756578558808,6.743271503062587
1.1953125,10.974294883260109,47.93702534352341,-3.614268389711479,37.97622886344023,-46.17351059507796,-29.08044226088892,43.15327775881173,21.35344464883998,-1.0422810071032407,5.565138615346897,-9.405573244823934,25.74724177718405,-14.355844684856741
1.19921875,28.397447916831005,50.24829661481107,3.985844335492094,10.04226477243439,-32.0580725706703,-20.71397172201353,31.40990266475548,32.79928561926555,13.065915733237459,4.323735946912168,-15.724789813131219,45.54465110107149,-11.581708350793615
1.203125,48.393263393501016,37.10595290728457,17.79520821474463,10.100019923522272,-8.605470894865272,-26.40242909297795,34.73413999532144,45.16087443772207,31.16998556818215,13.789682678235275,-4.629170192973738,61.98902385040885,-10.363669664985327
1.20703125,46.14272337598859,16.385526725641235,22.46794507582168,5.6747634144684405,6.945695398601051,-28.62398767049479,39.83852231975027,36.258102292678736,40.87078249082198,25.635583641238394,20.473896052729536,80.69126314554157,-23.443828113815695
1.2109375,34.40874891481776,-30.064042633134413,10.389986598199494,0.6793720010061444,4.046078526298702,-36.079097041844264,41.8905693283879,26.643909926535024,36.16760296851605,19.323025765181036,33.127223859928314,75.31609289090966,-27.016620803170497
1.21484375,41.84000580796227,-47.234892196629616,2.112039071785511,-4.202541536528357,-19.987309696597034,-23.662535510847405,31.142774169254373,39.866265223797136,52.42200929834682,-8.534036422402176,29.359227877413325,59.30656744554872,-3.275900015699084
1.21875,32.742578234081975,-52.89984994388953,-7.22873231465777,7.814218666889037,-46.07739964048147,-36.488799133880946,27.31045796126372,60.01264952906733,68.03242648462387,-22.908919386627254,46.67798978928993,20.887781804406977,26.548406146028817
1.22265625,55.64306910609335,-34.733515554650765,-14.688062646443607,12.764489101765072,-68.96127251168983,-40.337802595590404,19.190114176538497,51.201980234406655,60.93289920902897,-17.98215706068014,24.111667450723235,-3.0869203289244695,41.94671573569017
1.2265625,55.87921053740746,-24.013356251064224,-14.098689072643015,24.202320152963903,-80.81468352913454,-40.83455659908821,6.4590625401154895,29.889981524892278,68.92939322731698,-14.265586489911025,-8.809194882912447,-7.804998758772175,36.681019321301214
1.23046875,44.49891525189534,-4.164970525659838,-18.968429811545334,13.455104921916432,-62.99993054357364,-51.689911247124854,-5.337188489321579,7.407832214054234,50.57846672856685,4.536950706304434,-35.97028229477795,-17.627026631855966,9.650147862753279
1.234375,19.479861528082576,2.401537384481436,-8.559221781031809,12.268951173584021,-59.36641555642688,-52.98463586187268,-9.995268781450664,-12.923779362857324,27.762813347909272,30.929200462934602,-49.489840139553614,-13.871117077911874,-15.075878171077425
1.23828125,-1.1924719365801917,16.4467763440991,21.44744978104432,21.23750398942629,-23.644751365804446,-27.339734793865613,-0.2909935989765261,-16.780358796791305,2.926464391847351,41.464176998793775,-25.277647242017864,5.681630547042501,-21.65323535812024
1.2421875,-4.375787660334328,23.83062331797927,40.80039056499934,21.127142768543546,-14.545423250909,5.868050345828313,21.911410754133165,-10.029339316868386,4.291826817055356,64.85578696842869,-4.23004119091125,20.992991295099166,-21.193597223979744
1.24609375,-4.406889823481991,19.708829378538947,44.880696652400694,11.282325507671292,-19.891685699279368,16.003775166273403,33.227063176539524,12.123083664523147,1.2592301308690197,70.58903771465575,4.068808484679744,33.57032271775938,-16.13240826068181
1.25,3.387748597012088,7.231120402472278,29.118319386838458,-9.30635609825677,-21.88418439052434,25.466307330820243,21.755745962170575,22.778132960820937,17.910824975136283,51.92924947285139,-0.023662241369153455,28.45839054546557,2.8111528522553453
1.25390625,19.175028074499274,16.64352392828597,21.855214209991836,-30.23899876313262,-17.95938843250372,9.69472918369509,7.994934289823609,26.63621296653055,21.820679859552175,45.67795763901201,0.5892413938960384,20.079820123837155,-1.9032482727855182
1.2578125,29.884737614618047,2.4730519191962226,0.11743866236711031,-30.181857001961063,-28.7057300814335,-2.385358819641903,0.48687862243045166,14.458426532469982,34.54706187331424,35.728138491288355,-5.936495829567969,36.0250510434076,-10.849858120091682
1.26171875,40.18212252630608,-9.97971952074175,4.197179638817076,-34.16699811947365,-23.096633774587637,-3.136916575699558,-14.673545711454995,14.331690800982537,50.50412994070372,37.21269903724319,-10.831600247750346,44.068485940635966,-1.7237695518633829
1.265625,40.06483493036139,-18.81800501264817,3.3187170314992964,-16.90912714971368,-13.319269177799493,-2.4565945742600492,-11.33930821099235,1.2472033605693666,56.473716512952706,31.408077248154278,-16.792341258224404,30.260582418599526,8.443053278887838
1.26953125,31.275545932650246,-13.852731205667219,-13.292113873360451,-3.745096073229755,-17.89463906393791,-3.643006183255566,-13.787642229523078,-9.246425797249413,51.203415134509996,16.601934828698163,-15.718892458106275,24.24685783792338,13.801795065815309
1.2734375,17.024954484935535,-21.363997017381443,-12.52297362756633,10.314707972199619,-45.64884082268797,-7.334174457502024,-32.07388717975825,-8.721516805443697,49.83096639636854,7.3975267622996,-27.409008573129505,0.20347790181101333,19.34953468362475
1.27734375,19.77874206896186,-11.860874498321063,-40.812575612896126,19.904934053985368,-59.32109584861614,17.703228755253477,-26.95136700384883,-17.76339942523503,54.922170351246336,1.1619564614654598,-33.01105813179994,-11.200785214616609,15.448658337328025
1.28125,25.917402034011594,-2.0338706232778336,-35.31329427725716,12.900767410649784,-71.33804021971271,16.502244084764076,-31.73647634473456,-17.22863606291557,53.01352266029462,-3.2632573276942267,-39.06166447959653,-13.184665350829132,14.55312112413056
1.28515625,26.003691552943202,23.6606747027147,-18.693616789198902,-0.332917741487907,-56.844574637269815,19.993992491261295,-9.317461657042585,-32.15572404003264,52.55287623320989,13.468067076385992,-42.59586971964495,5.725068116605768,7.510555584585772
1.2890625,33.893546638365116,35.24224998488682,-8.66002968999371,-4.382450584703809,-39.52841398168202,23.660629292472123,4.421919571327125,-42.690833604633326,39.36304153602674,30.438204252606646,-33.467419203351696,24.776590466376824,-13.869411579006094
1.29296875,20.898208022750865,26.803924521352535,9.506667739113476,-9.669093638105606,-18.993418060154916,29.029968827083607,11.33168426647935,-33.230590125762724,31.69784213470347,39.96940453694279,-27.89529456329825,35.26117445629781,-34.76309106940603
1.296875,8.18744788661086,3.183461316749848,20.51852947413977,-9.462065772120772,-11.588941380050741,54.86974450054003,25.12868214110991,-31.781398716006226,36.697306942570194,44.874656969918966,0.24753093938675863,42.99092129277121,-39.64706241006696
1.30078125,23.15870116472461,-16.77471536894318,31.60546753839233,-1.8364303725673414,-10.459679146087012,62.81244048245306,25.481076215436968,-4.343561268302575,49.992880577111116,41.455690173218514,9.290402512331717,51.26685589382744,-21.703989003929244
1.3046875,43.32457512282878,-37.103655084171216,48.27932910587462,-1.8262339938360355,-11.962634715788694,58.86172010206984,32.74305626091352,31.246484377848734,69.24746348442055,24.07615749048141,25.44166093704526,45.10705130154199,4.358122965003075
1.30859375,69.34578823314088,-40.69846162396178,29.01736381181148,-16.593666590400087,-22.47696368257079,50.650377298569026,5.2135257026284165,42.83709072959554,93.65998992863717,3.0812338975210753,13.169928715186789,29.40971444261183,16.741400287312267
1.3125,78.87508055605878,-44.071770187470406,14.836014088852124,-33.35058517902328,-25.4660867929161,22.85354990982262,-19.57013877482104,25.960339736778117,99.00164816435422,-10.46822393186552,-4.023373948162792,15.21330893382917,19.015280214702916
1.31640625,91.12211394867981,-41.06074132587789,1.7894500694792714,-36.01717626010808,-18.956537045449213,9.084329989922434,-36.91129297781474,0.13549371646958908,104.97620534374035,-15.292189374582597,-16.253618744679073,10.984446099315988,5.722575222984453
1.3203125,73.0336226409439,-30.749659552413252,11.597411969959069,-16.506525148513436,-23.961892424786733,8.623481581458561,-29.269658082815063,-30.944903450164055,92.2127098508676,-7.586100533452927,-9.825478760952967,2.4626043960064563,13.725254657652382
1.32421875,61.300552890132465,-26.697940087504225,21.27628547604957,-2.833542035916997,-6.037788725754044,25.971667603177107,-13.78621337742171,-30.1212234612038,68.58327138537081,14.441942886181147,-5.823495662232908,9.943892739030689,9.797775001398296
1.328125,37.37560130034721,-30.00990195250437,32.74003959995556,11.45724605615608,-6.561499841116465,46.007284322493256,-3.2871843416321567,-36.83716469112675,43.95522031237587,23.199357669959188,5.94867755514853,1.1374541759296484,20.090127689471338
1.33203125,6.984996724689658,-25.319814116479186,18.057115633246305,18.873664179905745,-4.5528465803912175,54.329992512082725,8.599648679964352,-45.432036186752065,11.453059809260166,25.403723585547567,9.047644682459545,-6.37309475187365,18.123714716144583
1.3359375,8.032086780396249,-16.639120371682296,7.511027735800731,4.500176401746574,-7.641183108880563,48.98458855980319,24.192115170960783,-41.40692473274501,10.417080297554618,32.01186195304554,-0.9816345701353729,-7.499384016933379,-5.18769644401652
1.33984375,4.670438822686551,-7.438899245701968,21.137359636141593,-16.736677202197484,-4.498031200094806,39.29883664029947,28.837599570082677,-36.65236768460129,23.303808598020197,37.07180326461401,8.008239690233673,8.73760860181102,-23.030347274182073
1.34375,2.9577676797049266,0.7388635051954451,31.055465017009173,-16.60246974708071,11.905722867833589,25.041651306707834,15.887015392286763,-34.67963939073596,49.67636167567264,45.381737502350944,13.877368359671664,31.460566921954552,-27.23255416277558
1.34765625,11.82212130692175,-17.057838063574977,45.49706351438645,-14.776479881497789,22.60050111605934,20.622669554791365,20.47692655520398,-18.03312230032981,41.624852888473924,51.36660438518446,16.951429055611445,50.94380581595722,-39.932904102219254
1.3515625,15.922569043409172,-37.71745613744728,44.97252100203964,-24.71110426121132,26.872802773932086,-2.856090241899696,7.414540867838806,-14.408851979114715,32.092855481676295,38.61080730455468,25.753228501113156,45.233742456975136,-42.45980492277313
1.35546875,23.39422168685517,-57.77294701274477,37.32107998278686,-18.193005477286988,25.11069459916019,-3.3473548469902212,-2.792442990730184,-7.691479163315485,27.374545208188543,24.186010452029684,26.542226573159134,36.513624145909446,-31.07584914861496
1.359375,38.93452273292857,-76.37599202638889,19.523902517363926,-5.899078913581956,3.7845294751523544,1.6980579814640024,-15.850830998479793,9.783430885993788,34.51835633971043,8.31788170725603,49.562354774999015,19.2445574587788,-25.599711473276237
1.36328125,60.93669304221632,-60.795974461030305,0.7105272891771747,2.566630121812847,-25.282965983565163,4.119864438736033,-18.868325381232772,28.194163975450405,52.670794943219065,1.966617979081669,38.44458967373456,-5.713033028970569,-1.451452912186248
1.3671875,74.60477001009181,-51.19117452246998,-8.24039669081704,16.821668825725226,-54.72726473178661,-2.9266399679684447,-46.66405674648371,22.680350311119234,55.3457246397522,-10.129441735409593,10.521769237452077,-28.466333384804372,8.348850542505744
1.37109375,70.56583447681305,-34.99731348711154,-17.519416817251653,14.968356570811894,-62.54929308749264,-7.776006280497503,-52.68192635694247,12.670640644774537,38.31317220296931,-9.387520676005206,-27.621133875250628,-42.58421222125855,12.616593756863942
1.375,58.22087192537565,-11.695835680280124,-0.8095652957760413,21.763102796723025,-60.98163959736182,-6.44106058336087,-44.81817189319933,-12.937489246628338,20.761870960377227,2.818834040209696,-31.262588902083923,-36.48225702200548,-9.154049017095303
1.37890625,39.114838183362934,4.091693724931584,22.2867696907609,40.60636545986719,-42.74957640319373,5.961611366799792,-32.94153647172819,-28.023986545753203,5.66537809922993,5.649060344164692,-21.27215264348329,-29.085751937289892,-20.374399715600504
1.3828125,25.33309287291303,1.9372403191758019,35.96762273970829,62.297646995949435,-21.874844327191155,27.444322679768614,-6.000379666459286,-26.81667204956736,-10.92236104380146,19.832272357470913,-0.09183899177638899,-8.661782732413315,-24.783953290800707
1.38671875,3.2184754681910235,-10.276625237666064,35.60961019413621,67.56718565294004,-25.537295949858148,40.17385106809711,18.86623536155609,-6.875392331725544,-5.522698251423971,20.407945678411718,24.506147067100265,-8.851664019696866,-1.4149014660813886
1.390625,0.7546166506946855,-11.626530769092824,27.79701700572039,51.959912656269445,-33.649913989450184,45.37123810335741,12.586130513512899,-8.694426377965152,13.871544833771132,-1.9134004543118848,37.39927307115873,-14.340286479641588,3.215031604929808
1.39453125,8.54977415755081,-11.339335112592854,22.97257260499231,16.716360927461118,-36.17528417104778,21.083120168713844,11.444247796978148,16.07326567802789,32.957123692129926,-19.532772797847457,43.94268463762892,-11.090049537388387,-0.6116304227457964
1.3984375,29.594162830645704,-11.856448619085311,11.027963399793975,-5.069327155282321,-34.32752339078715,13.192342890692137,-0.9000984566167236,19.875523268238155,53.351031204654895,-18.677998125595458,38.0555725916947,-14.345430861968836,1.7599760626224115
1.40234375,50.577177004107334,-13.577183860175166,17.269380235124032,-1.9292130000087622,-30.02789365417054,-10.161387933483738,-15.801489723144071,27.06158684924541,46.44499245007738,-12.956476330983019,20.753496182967943,6.76411830170871,5.185404310837194
1.40625,37.090106581972236,-30.010542987107236,19.316435973201923,7.750614111833914,-25.74499285894987,-21.08150691308318,-16.01530431625497,7.872344520008459,39.220207314838184,-27.338260622699707,10.558770689848437,3.921968497717602,7.366611727589968
1.41015625,18.657537044709233,-38.572584815183454,18.38468571070225,26.706276623961507,-31.286681531029082,-28.089331555779978,-25.514899187662134,1.6088502786489873,16.77223340184433,-24.550257014642494,8.189359191754372,3.9555704041871094,4.929570822340377
1.4140625,5.075921900799399,-43.334843814728984,7.092506639304148,52.50743003109919,-48.45879417884015,-17.896502104978698,-17.614803917218442,1.938609643984338,13.838126926567726,-27.414784646481664,-3.292019927674664,-8.151203489761427,17.42136143493426
1.41796875,-5.101068429253024,-25.50354783571134,1.6182029122525896,52.97115844857983,-64.78442505836549,-24.190714550728476,-25.408985838596422,3.7202669180025074,21.71444141701462,-32.24709025725892,-1.6830824677153624,-36.48947248164882,22.34005300354214
1.421875,-3.2444303420431675,0.629743915795711,6.662920503626685,62.341501812007024,-45.003274862474754,-20.309064345557797,-13.001746778433194,11.035737018211815,25.93385381479367,-45.496774243330684,-0.6128533840737402,-43.42314089318667,21.720897918819038
1.42578125,-1.4899986200257316,32.73347558222862,10.954383453621146,53.10186057737936,-36.234956096714,-13.081785790524318,-9.992163842639268,-1.3195037585601117,19.852163583999545,-29.49205017556803,-11.702593185954049,-43.23476569024824,9.424149710783052
1.4296875,3.5254816693075797,38.4002845897996,15.934870475432382,46.659188686136616,-13.740416015547614,-0.2227120471404495,-1.010600340150419,-12.123637696109501,2.790559600158664,-19.482757235591095,-24.82821332393315,-17.380803964651857,-15.480727284747175
1.43359375,-5.789870081771618,42.092562947786874,15.33194594496441,35.11159787876671,8.318116771727292,1.8803612871997943,7.209641152571301,-13.440456096660895,13.980066893358227,-1.0196404131413128,-25.685581986080276,1.1859875571227108,-30.312965435687662
1.4375,-17.887061968363845,23.57709971630139,35.82213708164001,48.67421136895679,40.45331284477767,9.263376820742495,28.583365208599393,-10.585590893860214,7.756613886931364,3.3012298251230563,-5.935339213423777,4.718549758404777,-40.9217093255186
1.44140625,-30.836196487424978,11.586582361875058,39.00418299414376,49.25211906465858,58.27498332531437,41.5327765699464,26.48458307292462,17.74637388988061,10.839654404643662,0.3303791946761406,22.593358533464027,24.597135413015245,-30.58027625234345
1.4453125,-33.54684106022348,-16.58862913837791,27.830339732424484,37.58036850813847,37.377314050756276,51.718847604586024,31.879328776252798,23.701186708380312,26.549359769720162,-3.8415528284963414,49.35784429530599,25.537173361295533,-19.205299149238645
1.44921875,-15.69842640992837,-29.637437127992822,-4.234814549988494,25.223648474250133,10.71589038660111,50.07711919822883,5.545954298198215,31.08464183064736,33.38428287270361,-16.01403520685832,46.72112684237302,13.981406256416737,-2.191328104212264
1.453125,11.122797114788504,-46.289679731888654,-28.70669159341312,11.517961302951157,-7.254106636448796,17.165408099529564,-14.973715385105901,13.863461885017362,50.033834542118356,-39.84218296961963,30.903099678377703,-3.40215840207657,7.887181507758921
1.45703125,40.4063908786454,-38.94229371075681,-25.1079877022855,19.61005877331099,-16.542995367320216,-0.4116629492424778,-37.233900792689944,2.891480357373642,52.893791637313186,-33.400030122245575,1.3729875182392144,-20.779577254347934,8.936809813528832
1.4609375,42.60699437673892,-23.56177456093942,-18.732995792304934,36.95157779889374,-15.311873592459737,-16.908858294558197,-46.59217950819924,-14.350574275120467,51.91167573732286,-25.21975830628294,0.00310232930495688,-5.485534481097424,7.027620630308402
1.46484375,32.418375453816715,-23.508864779462048,-11.383935727734036,78.0270118182162,-19.848616816415884,-21.65793315803892,-48.37180255841431,-30.81348555781869,29.57106598573368,-12.31149863622322,-1.94914595858855,-8.209196541132943,-12.253752000379743
1.46875,12.948599203985227,-33.2730377217858,-8.310144320395077,93.19173958476895,-23.047736187214667,-4.437611339754961,-34.60746731514444,-36.422229700064285,22.20166992512474,-14.446396012926535,-11.93557779967206,-4.89659659218508,-23.09492914614646
1.47265625,5.02857356372999,-29.598629284850347,-13.501935007223908,97.406235782571,-26.314720461121777,12.015143881217247,-32.4815204434732,-37.30282214249272,-0.4729479041608603,-9.257779456766357,-23.829532704151397,-17.715994672573594,-31.504989932679575
1.4765625,-4.691743297997128,-23.989147480386258,-19.112678179109295,88.9734714341869,-26.954328434795386,22.435849994652465,-23.894893178518313,-4.0071413996856,-3.549387028331636,-9.374840307139209,-20.18992966602564,-24.605976394978523,-25.87976093064858
1.48046875,12.216259931722245,-15.847365483284623,-22.29499007044671,78.52347069426932,-15.757529504726445,41.146618129525464,-22.865457793824223,20.207307101210866,-1.758122871159486,-6.9759593565641875,-7.1560470655335,-30.63712119394296,-32.65843135530352
1.484375,21.98064758965879,-6.544496965157562,-9.777670820323365,63.18648520194902,-12.468134214056516,36.399606471012795,-29.471884408303033,31.96069720403452,3.4599870343911476,-4.427409713364831,-11.205931660392672,-19.08243596901602,-28.669948948109027
1.48828125,35.834516030884735,8.973847859026701,1.0079977476143707,48.695606743657855,2.276527023146255,24.17663732719031,-33.419975563508544,26.66581784468974,4.197678988011184,-8.9235398029136,-5.693684005324721,8.805356187340596,-40.11639267722408
1.4921875,42.296566915341444,1.0513433519436473,6.083294374808386,39.95208370099151,6.11992339770384,11.629392353802698,-38.545479229581794,18.791827121956437,1.112401630727506,-5.800059213732172,-11.537740819150216,25.38589584510131,-43.07084128218996
1.49609375,39.483345545893684,-9.490443812071982,8.65880045812225,36.889965713477196,5.6404106457031205,6.304829997654233,-26.83654010294137,25.447809790964456,1.7578426119319328,-12.00720653709624,-3.0284836126495334,30.885833007115036,-31.109102855165652
1.5,33.827509339092394,-17.030513115041348,-5.47252279731774,39.43020642718754,-1.8878687953343618,17.832936400285714,-17.142678339745352,30.940875759635706,18.037535675157773,-14.98717019360026,0.08674073761285175,28.514539776054523,-17.68830213862952
1.50390625,37.404973187496175,-16.347330184836316,-27.481255351761618,44.51658812103743,-31.22761378675838,6.100363272444296,-31.328535471237018,47.16663373602649,50.7471941231106,-35.415062165128724,-6.889737238889733,13.117531370289356,8.470947090375972
1.5078125,54.37435443061223,-24.213214987576073,-55.0722385454896,52.46667139068122,-51.89856054333994,-11.323775368486109,-44.87972210939169,43.48954964550913,58.054492086754266,-47.03142471522055,-19.409280465728393,-9.279621466910971,7.686977159847995
1.51171875,59.96390772274398,-11.918072031974713,-75.81306457006039,57.92218694440137,-57.834416856649014,-37.00076104000722,-62.55275072249372,26.790101539759064,49.47309710949633,-34.37077740287312,-47.877250366126916,-27.9444935280131,9.174241861921411
1.515625,52.524060792871396,4.377838313520323,-69.16995053188006,57.06070286924028,-62.9482487774966,-29.55419485447143,-72.70175063747864,8.423564715298879,46.21287964783525,-26.262761574809957,-62.84701721627576,-27.65738118302529,-14.124259540631954
1.51953125,38.322739134941564,7.2059060500094585,-32.806480499006966,60.85940559795038,-31.07021320158232,-22.96123865970838,-55.32663932719938,-8.396795384680438,21.35913472130515,-4.212092021332908,-60.678835312737796,-11.371354864656793,-24.13626576614941
1.5234375,8.907030833151525,5.082941093914695,-17.044427597589777,71.24516755643236,-13.318991847072077,-7.184993335920112,-24.05144083912515,-8.676423156866607,16.050222584234163,17.269988927205784,-44.67703357302626,0.7776349523210985,-40.68390517261359
1.52734375,2.567556483739035,-17.07315235950999,-4.3895373531964985,86.04323687729966,3.4275622647912503,13.282489687413834,-21.333660927000814,15.079082958235484,-9.247528700247397,19.61811804621236,-30.911104272499777,8.798525481083054,-43.860618948779006
1.53125,-3.5204115897934662,-29.54848544249402,-3.4588763027280067,78.59994929116142,-5.992994194361357,34.13853965068107,-4.136870870941099,32.06948629596533,-5.330050728450464,25.09793155244769,-15.399427046997477,7.900724198032053,-46.74784881036578
1.53515625,2.1456628500615,-30.016757514302427,-16.647507267014866,59.62007085594965,6.971496180686739,42.038300676696096,0.40356360223826104,50.956821066904794,-3.1357236684283323,-5.151660290869852,-11.174526739734388,4.6601498430350965,-33.122310847385606
1.5390625,26.667359584940236,-20.025522762562073,-22.884355868390745,43.63985293368546,-1.7581460021315736,32.201268062719855,-4.489810586336743,68.92413515066609,6.4022038750669585,-22.4633836159001,-11.98457956330694,-2.1444186056004804,-26.341429914025085
1.54296875,34.3963327802391,-12.604491277880538,-33.151421112459346,41.00055756723934,2.8022433747174524,16.34985930628122,-20.55319742800172,66.53896346267464,26.3566940975943,-21.312647845131973,6.573338525855186,-0.37826743060885515,-15.579155241012339
1.546875,43.7256787630738,-24.51859712027894,-42.38001121447915,29.76068593010014,-0.9854546774254447,-7.457134153766868,-24.93711770360035,45.8411292184507,36.224173610593354,-26.84643051191008,0.1319414311013778,4.056533816527396,-16.639558171156953
1.55078125,50.86281126201564,-51.5522052293485,-49.54819355282127,33.06905743586655,-8.336796404587545,-17.108645296743042,-36.102302787921246,3.909550837103119,32.49242914089432,-30.71536683043687,0.44823251323072577,-18.54337432177935,-15.636444530522462
1.5546875,47.82904146518248,-73.02458243876987,-52.26109579235998,43.33648673585833,-17.342419094980972,-8.323802236003274,-27.103464383519515,-25.18971867717442,17.54897939120515,-35.59640788900318,-6.337846334561559,-25.5417537586468,-2.6858933976407444
1.55859375,41.863389948674964,-80.39328351676646,-46.14384803872683,64.78634047146147,-30.192197596083766,-5.042941124393706,-18.660051764137734,-22.289085409854014,21.180703066885012,-35.445914007830396,6.184887351445509,-31.571067314018087,14.347469078009233
1.5625,39.22823551999444,-69.68532651401372,-46.68914791896634,74.34442420392476,-43.136184971179276,8.805817501472236,-15.810061570306637,-16.144288842262323,18.44863122123749,-34.486040401302716,-3.3661804355414686,-37.70211185460087,16.490802077203096
1.56640625,43.54132544458031,-49.83832313580184,-49.308728630637226,76.8697375411954,-48.622340708502314,5.352691989313605,-26.675107661852245,-20.14079662415366,16.80452950684048,-35.33202889681108,-4.307446940315607,-42.32384295420197,19.292772372833323
1.5703125,35.09966984533897,-42.193102280182984,-39.56173621228449,60.18664121857007,-45.516342554490976,-7.7716913992629,-28.481028339912612,-10.895580345452519,2.6774635390162644,-27.756443526576188,-29.87964279968814,-49.46990854357634,2.256047464980971
1.57421875,13.522340290968838,-32.576797459738486,-17.13616785106654,59.07004352626643,-27.96025971033236,-3.3223859982872392,-18.33535240323652,-19.34493107653924,-12.557618790064085,-13.632532771450448,-38.577016195485506,-31.70749329795294,-32.625194385433524
1.578125,5.253133700793265,-35.4773325787884,4.585257160166006,55.0871352350178,-0.8425483482698801,23.39503457421806,-6.11170240733396,-33.93893249707703,-24.778211788832436,15.978549049850407,-16.09589509087378,-0.39722956429960127,-48.37712509160149
1.58203125,4.289256807585243,-44.79367198039246,24.17708771983431,61.60032752849033,26.877934384104805,42.120171279903985,14.798974211534741,-13.089663708414633,-23.583525948920464,20.284955323084304,13.83697569488403,8.783221805808378,-66.12649865514021
1.5859375,10.386290021007653,-53.24445006816322,24.053382506959462,66.09725656476489,35.10264987796915,45.334395793227316,19.744331061183615,18.190795201447166,-25.890241626419986,17.07688795247927,26.044313954849436,30.371474189974936,-60.41245498116844
1.58984375,2.773095797243364,-77.95209330984125,13.785264499487607,61.556283153094135,21.563131928939526,35.560437178708966,-4.603598654114259,37.13945296603948,-6.640839353873078,0.34780518878152455,25.93833302042061,22.81516535637933,-37.30025989494235
1.59375,13.480984256811514,-78.00292881940842,-7.6383896939244655,47.19801438978634,-0.4066972549840203,28.14471942936916,-38.57819040183403,51.98851674237112,7.300338280790813,-36.03914643820998,22.991494444304756,-0.02188370400019124,-24.51665596117499
1.59765625,30.3538805056405,-66.748294407809,-33.52133750884075,43.78149388743256,-23.439770407282232,8.631725518203494,-56.19811630932261,33.76993699243684,18.000448078649217,-56.537943944615975,18.5865688162087,-16.400791796703476,-25.48054654776385
1.6015625,37.231667258989745,-49.70331239388469,-31.05631802378656,61.27109010003732,-21.853792029659196,-13.20802278408582,-54.984925152917626,23.3363507772004,32.91008603665048,-34.417529017066634,7.597864455708157,-17.059727766322474,-19.993065068665846
1.60546875,38.19277341142073,-30.876706838928797,-12.86733986869,77.16147666864974,-7.959692738083293,-20.094496280196598,-60.84632239850828,-3.265765446223792,38.0882880871319,-26.996378788077156,-4.88940113270086,-15.74628302437466,-29.200193801836235
1.609375,22.669467659819315,-22.12424339145032,6.6575220325283455,82.94432237883933,-10.178940933266317,-16.16470446863172,-60.09249219905047,-19.314666067115297,18.683073505090423,-15.79170691281183,-2.3016003935626754,-22.56360080300242,-48.8473080422971
1.61328125,-6.035573959105952,-31.721714734609485,7.611940086365088,96.83054929780384,-14.318765151623658,1.4185413950941062,-43.474907425573015,-16.29550115108108,-1.727252600468474,-9.780479126715786,-7.740093646003341,-49.47894640685742,-50.018831439415266
1.6171875,-7.243814338832814,-27.962129764334193,5.911685966890986,95.99208978055172,-5.602298143429372,30.827716590880804,-29.015445844578437,-13.20242739203394,-13.074912743640015,-1.8281843319171331,-6.933046016804561,-62.0956441063083,-55.760732382591925
1.62109375,-11.541401452923362,-13.999705172716501,25.137284361098153,69.41225440342669,11.78427295073827,54.35243189248682,-14.241690122554928,7.674259698413424,-17.754236395173532,1.2166120272943837,-5.743990709507466,-55.014598982045584,-59.29232082462772
1.625,-9.26072220313183,-3.711958448957308,40.39752178370392,53.05138172110261,12.757105023209053,57.13027453084983,-5.912880874488508,11.598141113576222,-5.439791151665496,8.473137497971363,-12.834482350322967,-41.627206759165894,-67.77557405269177
1.62890625,-6.556295122599451,0.10503565146148919,46.325592332624325,30.512750205589803,40.56400092838763,48.565503545732085,-7.391508867334659,10.578861428511239,-19.992289874021974,5.67661042624525,-8.12139188128149,-18.96700932756589,-77.21891904920429
1.6328125,-9.022580688429962,-9.252127430392745,33.787229896694456,20.51455485407398,50.887031819813835,41.795009923835984,-8.071519105894044,1.865456678313896,-20.70648876623773,7.279423482209988,-4.513766026031634,-7.165476540591724,-81.40081918546795
1.63671875,-7.977889416640526,-14.041398727120939,32.32079712737183,12.74146815225539,64.01585271313463,32.22360824301168,-9.551209601090381,13.933707069791186,-33.610985958191854,-5.421499168923112,11.390406440166894,3.5438718476556152,-78.56426356614078
1.640625,-10.806035900912086,-40.62082036041451,22.88839826188933,11.744581975411519,62.26864994418363,42.895435283973136,-6.189830869547364,15.242814913821906,-23.70694320768056,-9.912231538258219,28.46727976384388,4.244354477901612,-58.305634619145195
1.64453125,-4.434595337455047,-51.9988008002486,24.968280110514215,22.424975404487256,50.086962517436234,40.93808703583365,3.065071983682594,24.78201131193671,0.7252453805162812,-20.67706573416807,46.33395285908879,-15.270897508535182,-30.21463689906846
1.6484375,2.291098581703697,-58.64439145439157,-9.6901221780296,26.41804706567018,26.423206908849387,36.28603278213345,-9.365204970865978,36.44181451546787,13.428288311819824,-31.20326776752801,43.286747784996734,-33.54379724887305,-19.61904123894088
1.65234375,-10.263408055067277,-44.502854777191544,-19.470310858023115,22.603656055811605,-5.928242470779059,32.132873783370584,-27.653410569341126,9.493355388475301,25.717670345168806,-37.18875676017274,18.44223098719313,-49.18640927266253,-14.5612503467133
1.65625,-4.923281459717553,-38.032988031358734,-26.33054475616715,24.212979454518123,-3.15562869496922,25.363055233448502,-45.66422692580103,-3.5330919433346377,32.742146415762555,-35.96643020835609,-3.3987402593727865,-39.09728999310821,-21.12704808368379
1.66015625,-4.504229928445801,-13.882488329796557,-20.800944105498797,25.405849253069572,6.295489578877377,29.58869907137231,-45.06558013222509,-16.771302682062846,23.396061735176247,-8.541526371121876,-12.467318467391262,-21.00871336390697,-37.017462297193504
1.6640625,-11.726773768474686,-6.992072813928698,10.411755432535356,39.80154589678826,19.898876517638815,37.85428932172568,-34.80056662460497,-30.496081217541228,18.905520648105675,8.46212620931646,-4.086695865975496,-19.227747453427288,-48.54283532882805
1.66796875,-24.71892379584458,-17.970214242120864,34.25528004189144,45.32208865497654,22.62941782169762,52.983292166821215,-27.31572450326993,-20.307142557078684,-0.5079370739859457,17.730139375431104,15.407646703614502,-3.544384217637692,-49.04497370145098
1.671875,-36.276067338105015,-41.306110313725746,31.488069655175916,49.885470337696596,28.896698945653153,57.84681321210033,-14.88878766583882,0.7960454352565216,-16.556770180307137,28.62657452273607,34.85475856265164,-13.989581972320074,-60.43175893601954
1.67578125,-44.68258454714597,-52.00863145277108,30.087705246701823,39.2064122146656,27.108052598413074,66.815443066988,-11.426245960238097,25.269869233911734,-14.604399120848015,19.661003896181366,55.5045149350056,-1.4642602588412634,-48.386215467665636
1.6796875,-33.823668824739585,-41.510681557082535,35.08560491440757,20.277587209117836,19.156003502514437,48.125263995440775,-10.578170007868948,45.04421916522923,15.623290705732195,11.254822419900353,72.89786587550725,2.0364799705940513,-46.2147412497862
1.68359375,-6.485875286574608,-38.40470261785371,25.682508151552874,17.68754844737591,20.134304567588394,42.183828242621914,-11.183063344429085,46.646745957910724,35.94084072978471,3.106026661464419,70.41929718308606,12.279247885181121,-40.06885514454212
1.6875,4.735652315764164,-34.64121433441258,31.621095857175234,5.028215690978575,23.33163934989264,25.973635169394367,-28.69704257988311,44.32213188284119,41.841916216064334,10.162924961660556,56.959525807260135,27.842370644184914,-36.69506452143993
1.69140625,-1.8516007109799493,-30.783562097610435,18.932828798059784,9.60383601183969,16.752135473196013,6.918230101338577,-30.91349948117029,27.380125433314035,43.26341014664024,8.426607836667175,48.16098854275282,30.008222780149026,-44.559232360139525
1.6953125,11.486610863836404,-36.97193722481894,3.644492656590354,21.684445265878743,14.341834657145569,-6.162015687105895,-30.041621873639976,14.356150365536264,22.539142992217215,15.612686637308077,38.821048847161926,28.50911307808293,-39.39574721877275
1.69921875,2.467886137199326,-40.287747692341455,3.5319517350476355,53.95179058448132,9.68667909035993,0.4397828295499234,-11.895174349086219,6.738754790229169,36.73312086136521,11.170594897749373,43.59792450651128,12.65248840737366,-19.112633618877574
1.703125,-8.611636840560084,-22.81644146569637,-10.137427938010422,67.15891909681885,-1.007929699150882,-2.7043920836462116,-15.144909516295932,5.0074544439221835,28.347987926609083,2.6674867178097,47.08505445299007,-7.014800096738638,0.017562339523012338
1.70703125,-30.59529860022247,-9.14269863411493,-14.871266373796907,65.43913291674079,-19.501161523132126,7.945165250222365,-7.183058946952347,3.598513633737302,31.0656719899538,-6.872558104205711,36.88940956164571,-17.971497330047463,4.578980937498033
1.7109375,-28.742983476496626,5.183930075733603,-19.228136239976475,50.91829196133727,-20.39811055985753,0.9641271172558047,-16.329471578791974,-15.176004142494957,24.243319997430966,1.0336658111659265,18.03247897798744,-16.217896436423956,-6.7549135762014
1.71484375,-40.31789740916787,10.147728024179433,-19.183437660286767,39.38862747741618,-27.011998153008435,11.237835158271203,-19.918757109238832,-17.540999443280175,10.36006872873783,26.258588507935656,10.66450495020985,-5.900281864732822,-26.100615578913555
1.71875,-41.05597010984471,25.567570107214927,16.30378101324908,42.74798285603968,9.446353113989662,23.129700635644127,-4.873035790047834,-26.75509782928674,4.773982202460304,52.582224362582515,14.658518363564571,30.93651375362715,-40.60336192566211
1.72265625,-38.166523432835604,18.90015564199707,37.11214985474409,46.580807878444176,43.03877357125516,40.34243875958459,13.773498409149878,-21.151553081416267,4.588321869929358,76.24498746607269,28.51916279530866,57.66210182199209,-46.09444913413577
1.7265625,-50.16772398950286,1.513848140944094,49.717335709634014,41.41512377920022,47.00788835440589,54.09040368097063,31.080595112497612,-11.67630777796293,-0.11230898829066582,74.68234778916973,50.58524100251976,62.91438899687306,-26.16720987355311
1.73046875,-48.40158255544224,-30.099381080819402,43.952455991543346,40.9480380920904,25.700210827153317,46.02344390287727,35.50815085180673,5.853135439866528,10.465006641168443,47.6573267018605,68.88282395535279,52.45769214134758,-4.707933241085581
1.734375,-24.517712473041104,-41.17935059497797,33.290157665065294,30.279733133344457,17.676313059789507,32.320206610284444,24.377456663434884,19.690579584865525,8.98983305131597,38.015228998822835,61.34921820479887,33.48294525335439,27.969898123779508
1.73828125,-17.42443045624321,-44.48829566220358,3.8895114673756903,14.962709192374268,0.8511328190789214,17.52032706348341,5.402614750993902,27.22014333181236,24.969012698332016,23.761576998850096,44.65242888966892,26.49152947190241,40.72518993028875
1.7421875,0.43772024724041625,-31.766286692083092,-19.062031552508707,5.7929197697468915,-5.313502717301313,0.13994414555185797,-2.8630767122820453,11.676044677946383,40.61952710752932,22.76934223934543,36.69971416235435,19.321243292560805,48.17239130650593
1.74609375,0.7564458904374993,-13.361702709900669,-7.272591385031117,12.117380954625574,-7.285664334197119,-17.28176091816035,-10.035325926060622,-6.404857981413285,29.992125609477178,32.31968017890501,20.598442144000103,19.973911502624333,35.06453640953505
1.75,-12.532088930258258,-5.162616635579138,-0.21936586987111317,29.948907402479605,-18.822408478447844,-25.040603410147448,-15.494629291318027,-16.137637753997474,9.80560152095639,24.441911450968693,9.772129795839078,23.34349883536202,13.109019754876996
1.75390625,-33.96169681058314,-7.585991012681442,5.763064073867385,49.95407392335855,-13.332053668918615,-15.681655281350942,-10.715969896336953,-34.10158341791002,-14.59965537896884,25.393251703741647,1.8135453561362098,15.282316771218149,4.685475701063674
1.7578125,-58.18619046876388,-18.336749323022246,13.15491220201574,73.08085059517579,-8.028015117844518,20.041650431643045,-3.7252507678487268,-23.453079677829226,-37.20523650874902,34.93594221135361,14.625773734873022,6.2749165054985045,19.766989338974717
1.76171875,-68.58910892399412,13.567837434065453,19.005017982125576,66.28199387514225,-4.83955389495927,36.17045329292145,2.2332430965843493,-8.193385428761019,-26.85771172306422,37.01189177099451,22.602071216108488,1.9772731221756776,29.23955165005097
1.765625,-70.56836540805523,36.736512424810336,28.501041527770404,50.61325128814268,-18.549539020783776,38.09899944277072,1.3851014030737603,1.4332260002637094,-17.594693099105207,35.07213416912319,17.340245883962638,15.78475590594709,21.250894618734666
1.76953125,-65.68515441610666,43.732314553196204,17.755923208720464,17.43051339826978,-9.806698971490531,28.155098030273443,-13.120442657990655,8.140927201407509,-22.120749652974855,41.11379981665966,20.63194797816577,25.509191767736002,10.465501236244814
1.7734375,-58.08613575480603,31.649653093266302,26.25594692865242,-11.729089706406485,2.4760756971905087,24.361431054426845,-26.735558432719433,3.703968433027147,-6.733915201961086,38.36337372533176,25.700060310180422,42.307672884204656,-13.443238581845929
1.77734375,-45.0796761961616,18.665961979473327,43.640623988518065,-21.50872128516454,14.958026619374522,28.77347085321738,-31.109075373835104,12.450027417425824,-3.17118235509475,58.379565619903964,33.14643968274623,53.817519562045575,-11.093423367433397
1.78125,-32.1219295236276,-1.5145209256525751,56.87750091679679,-11.25398686188159,31.295355872081373,43.93676435874569,-14.512066812428447,13.668601351344565,7.0840145485694155,55.90466898903198,56.81498120165492,49.50037165551762,1.516850184814975
1.78515625,-22.320914855993486,-5.909769740522178,50.19542102371925,3.4996696053461784,34.26177052426659,43.232358151763464,-17.24163024216024,27.115931601196735,15.436140081638696,48.94153786397819,56.614080377564584,51.09704287451919,29.394458546430915
1.7890625,-27.31992250368446,-14.380683748019514,30.4065053310388,-1.5364109052708197,15.75701730205623,36.142573506978735,-20.421109267602155,37.66980684721683,39.10144674473253,31.590031134279457,41.42063443111223,37.678420384285594,45.45161328029492
1.79296875,-23.552209166058216,-17.296245573475325,18.278049630771328,-11.17839293682687,-18.7772633652606,11.416638405168246,-44.04665316108789,37.555350176374276,53.201845801692656,8.075500214380524,15.96613273936861,6.208028597191186,28.799129216076025
1.796875,2.2954741209452445,-2.141816051277364,10.42979126476179,-25.750269925119127,-40.34933245736505,-3.9450704082315924,-57.23388980314731,22.1890517619076,49.0272113492168,-5.610738130712008,-6.347328572755436,1.8390212347429302,25.023252463891545
1.80078125,12.75811208726357,30.1156186552289,28.137102815385862,-16.152995625679907,-40.11934978297667,-15.776470371505528,-61.66610687543843,10.595771619193782,26.038025345424984,10.591325395129722,-17.570801743199358,17.611292200364762,14.23386262716663
1.8046875,-0.02920631377068106,56.99364764446473,30.237324836604536,-9.107774303760136,-23.829986174850454,-5.433542859692895,-45.832856183317006,-9.975111383505709,14.054984575723385,48.70754582250348,-25.71070339410307,28.076078117115102,-1.8716205333025648
1.80859375,-9.254216781437284,67.79156033386387,54.28580051133114,10.982140306391521,-0.36717866209578287,8.071332536036884,-9.585124050713068,-23.053954530891765,-11.312260869470698,63.867509725969,-14.520630274733701,40.394546885928904,-34.88498392797883
1.8125,-37.36089047100057,60.115104351773034,58.09530661508899,14.37001643665635,10.562544131971919,25.606330334328582,4.128075869327967,-24.723195048370258,-32.201234623744924,74.48677417361336,-5.906366280451197,59.48177665261615,-28.43267809654485
1.81640625,-51.054026204307725,45.18589341643997,57.66077787903913,8.638768923893974,12.406197811312502,34.9938964542834,17.03619296547587,-14.15271970951819,-32.890632966085995,70.44844456974766,-7.43352218228668,69.9097286433575,-25.49633402158602
1.8203125,-29.26141912976768,16.159595034833963,62.467219818295334,-9.246188651688868,20.102518186606154,51.03677957838616,14.652598559533882,15.745115273619803,-30.379292280838502,64.89640861902802,-2.1300507247372913,67.03158431529643,-16.73125553222562
1.82421875,-16.658791170033965,17.439261805615352,44.55610834675359,-37.60676187432799,10.8080434001256,28.221278736579876,18.012399132895833,39.548596022141695,-6.021787138828902,64.37094729058653,13.867127411393154,65.49845332666656,-13.216576044761341
1.828125,-9.68075630653198,12.616782102995545,48.96135139913275,-64.94976163978488,11.145980027819904,8.370244266133618,12.114982310583311,46.88558885481619,4.385802144229834,54.09211824415354,1.6443522056739333,66.53939109000572,-17.72708711991261
